File: material/gas/smooth_input/co2_uv_vis_toa_T1_P0.txt
2.8e-07 -0
2.814e-07 -0
2.8282e-07 -0
2.8423e-07 -0
2.8566e-07 -0
2.8709e-07 -0
2.8853e-07 -0
2.8998e-07 -0
2.9143e-07 -0
2.929e-07 -0
2.9437e-07 -0
2.9584e-07 -0
2.9733e-07 -0
2.9882e-07 -0
3.0032e-07 -0
3.0182e-07 -0
3.0334e-07 -0
3.0486e-07 -0
3.0639e-07 -0
3.0792e-07 -0
3.0947e-07 -0
3.1102e-07 -0
3.1258e-07 -0
3.1415e-07 -0
3.1572e-07 -0
3.1731e-07 -0
3.189e-07 -0
3.205e-07 -0
3.2211e-07 -0
3.2372e-07 -0
3.2535e-07 -0
3.2698e-07 -0
3.2862e-07 -0
3.3027e-07 -0
3.3192e-07 -0
3.3359e-07 -0
3.3526e-07 -0
3.3694e-07 -0
3.3863e-07 -0
3.4033e-07 -0
3.4204e-07 -0
3.4375e-07 -0
3.4548e-07 -0
3.4721e-07 -0
3.4895e-07 -0
3.507e-07 -0
3.5246e-07 -0
3.5423e-07 -0
3.5601e-07 -0
3.5779e-07 -0
3.5959e-07 -0
3.6139e-07 -0
3.632e-07 -0
3.6502e-07 -0
3.6686e-07 -0
3.687e-07 -0
3.7054e-07 -0
3.724e-07 -0
3.7427e-07 -0
3.7615e-07 -0
3.7804e-07 -0
3.7993e-07 -0
3.8184e-07 -0
3.8375e-07 -0
3.8568e-07 -0
3.8761e-07 -0
3.8956e-07 -0
3.9151e-07 -0
3.9347e-07 -0
3.9545e-07 -0
3.9743e-07 -0
3.9942e-07 -0
4.0143e-07 -0
4.0344e-07 -0
4.0546e-07 -0
4.075e-07 -0
4.0954e-07 -0
4.116e-07 -0
4.1366e-07 -0
4.1574e-07 -0
4.1782e-07 -0
4.1992e-07 -0
4.2202e-07 -0
4.2414e-07 -0
4.2627e-07 -0
4.2841e-07 -0
4.3055e-07 -0
4.3271e-07 -0
4.3488e-07 -0
4.3707e-07 -0
4.3926e-07 -0
4.4146e-07 -0
4.4368e-07 -0
4.459e-07 -0
4.4814e-07 -0
4.5038e-07 -0
4.5264e-07 -0
4.5491e-07 -0
4.572e-07 -0
4.5949e-07 -0
4.6179e-07 -0
4.6411e-07 -0
4.6644e-07 -0
4.6878e-07 -0
4.7113e-07 -0
4.7349e-07 -0
4.7587e-07 -0
4.7825e-07 -0
4.8065e-07 -0
4.8306e-07 -0
4.8549e-07 -0
4.8792e-07 -0
4.9037e-07 -0
4.9283e-07 -0
4.953e-07 -0
4.9779e-07 2.6836e-39
5.0028e-07 1.8272e-38
5.0279e-07 2.9484e-34
5.0531e-07 1.5927e-38
5.0785e-07 2.0146e-39
5.104e-07 5.6845e-41
5.1296e-07 8.5717e-39
5.1553e-07 2.2075e-36
5.1811e-07 2.1435e-37
5.2071e-07 2.7072e-38
5.2332e-07 1.8354e-34
5.2595e-07 1.1614e-38
5.2859e-07 5.1897e-39
5.3124e-07 1.7573e-38
5.339e-07 1.9186e-34
5.3658e-07 1.6082e-38
5.3927e-07 2.5186e-38
5.4198e-07 3.2913e-34
5.447e-07 1.5441e-35
5.4743e-07 9.1074e-35
5.5017e-07 4.0531e-34
5.5293e-07 3.4414e-38
5.5571e-07 3.8082e-38
5.5849e-07 4.3756e-35
5.613e-07 2.3605e-38
5.6411e-07 1.3453e-34
5.6694e-07 3.0357e-36
5.6978e-07 8.463e-39
5.7264e-07 4.6969e-39
5.7551e-07 2.0283e-38
5.784e-07 2.6691e-34
5.813e-07 3.6317e-37
5.8422e-07 2.5071e-34
5.8715e-07 2.2083e-34
5.9009e-07 1.3521e-37
5.9305e-07 3.2298e-38
5.9603e-07 2.488e-35
5.9902e-07 5.455e-35
6.0202e-07 1.3539e-37
6.0504e-07 1.0415e-33
6.0808e-07 1.364e-36
6.1113e-07 3.4769e-34
6.1419e-07 1.7086e-34
6.1727e-07 1.2741e-37
6.2037e-07 2.0825e-34
6.2348e-07 1.2559e-37
6.2661e-07 1.3327e-36
6.2975e-07 5.586e-34
6.3291e-07 1.2534e-34
6.3608e-07 5.7346e-38
6.3927e-07 4.3484e-38
6.4248e-07 4.9829e-34
6.457e-07 1.9358e-37
6.4894e-07 2.9973e-36
6.522e-07 1.2446e-33
6.5547e-07 9.2861e-33
6.5876e-07 1.7242e-33
6.6206e-07 3.82e-33
6.6538e-07 3.5307e-34
6.6872e-07 2.5598e-34
6.7207e-07 9.433e-36
6.7544e-07 2.7455e-38
6.7883e-07 2.7124e-38
6.8224e-07 2.1357e-34
6.8566e-07 5.4387e-38
6.891e-07 1.8852e-38
6.9255e-07 6.3501e-38
6.9603e-07 5.7776e-34
6.9952e-07 6.4861e-38
7.0303e-07 5.5626e-37
7.0655e-07 8.4794e-35
7.101e-07 1.56e-32
7.1366e-07 3.206e-33
7.1724e-07 4.5873e-32
7.2084e-07 3.7059e-33
7.2445e-07 8.6032e-33
7.2809e-07 2.295e-33
7.3174e-07 4.756e-35
7.3541e-07 2.8471e-34
7.391e-07 1.7732e-34
7.428e-07 6.4144e-38
7.4653e-07 9.7167e-39
7.5027e-07 1.2667e-38
7.5404e-07 3.2813e-38
7.5782e-07 2.0945e-34
7.6162e-07 6.3304e-38
7.6544e-07 2.6021e-38
7.6928e-07 1.3228e-37
7.7314e-07 5.5582e-34
7.7702e-07 2.7656e-35
7.8091e-07 6.6859e-34
7.8483e-07 1.9001e-31
7.8877e-07 2.5793e-31
7.9272e-07 2.6089e-32
7.967e-07 1.3077e-32
8.007e-07 1.7197e-33
8.0471e-07 6.0367e-33
8.0875e-07 1.2515e-33
8.1281e-07 1.6467e-33
8.1688e-07 1.2129e-36
8.2098e-07 5.768e-33
8.251e-07 3.6436e-34
8.2924e-07 2.1561e-32
8.334e-07 3.4238e-33
8.3758e-07 2.1555e-33
8.4178e-07 2.4265e-33
8.46e-07 4.681e-37
8.5024e-07 2.2644e-35
8.5451e-07 3.2029e-34
8.5879e-07 6.2535e-35
8.631e-07 2.5836e-34
8.6743e-07 1.392e-33
8.7178e-07 6.6411e-31
8.7615e-07 1.2381e-31
8.8055e-07 1.4488e-32
8.8496e-07 1.8069e-33
8.894e-07 1.0474e-34
8.9386e-07 4.8897e-32
8.9835e-07 1.2148e-32
9.0285e-07 6.6013e-34
9.0738e-07 5.2729e-33
9.1193e-07 6.0366e-32
9.1651e-07 1.5837e-33
9.211e-07 5.8389e-31
9.2572e-07 1.7429e-31
9.3037e-07 1.2169e-31
9.3503e-07 3.1935e-31
9.3972e-07 2.5328e-32
9.4444e-07 5.5419e-32
9.4918e-07 2.0942e-32
9.5394e-07 4.7221e-33
9.5872e-07 4.472e-36
9.6353e-07 4.3342e-33
9.6836e-07 3.7359e-33
9.7322e-07 3.1847e-33
9.781e-07 1.1693e-32
9.8301e-07 2.6881e-32
9.8794e-07 1.892e-33
9.9289e-07 3.0515e-32
9.9787e-07 1.0371e-32
1.0029e-06 1.6966e-34
1.0079e-06 2.1293e-34
1.013e-06 3.1094e-32
1.018e-06 3.4915e-33
1.0232e-06 4.8868e-34
1.0283e-06 1.1811e-33
1.03e-06 2.7867e-33