File: material/gas/smooth_input/co2_uv_vis_T0_P0.txt
2.8e-07 -0
2.8141e-07 -0
2.8282e-07 -0
2.8424e-07 -0
2.8567e-07 -0
2.8711e-07 -0
2.8855e-07 -0
2.9e-07 -0
2.9145e-07 -0
2.9292e-07 -0
2.9439e-07 -0
2.9587e-07 -0
2.9736e-07 -0
2.9885e-07 -0
3.0035e-07 -0
3.0186e-07 -0
3.0338e-07 -0
3.049e-07 -0
3.0643e-07 -0
3.0797e-07 -0
3.0952e-07 -0
3.1108e-07 -0
3.1264e-07 -0
3.1421e-07 -0
3.1579e-07 -0
3.1738e-07 -0
3.1897e-07 -0
3.2057e-07 -0
3.2218e-07 -0
3.238e-07 -0
3.2543e-07 -0
3.2707e-07 -0
3.2871e-07 -0
3.3036e-07 -0
3.3202e-07 -0
3.3369e-07 -0
3.3537e-07 -0
3.3705e-07 -0
3.3874e-07 -0
3.4045e-07 -0
3.4216e-07 -0
3.4388e-07 -0
3.456e-07 -0
3.4734e-07 -0
3.4909e-07 -0
3.5084e-07 -0
3.526e-07 -0
3.5437e-07 -0
3.5615e-07 -0
3.5794e-07 -0
3.5974e-07 -0
3.6155e-07 -0
3.6337e-07 -0
3.6519e-07 -0
3.6703e-07 -0
3.6887e-07 -0
3.7073e-07 -0
3.7259e-07 -0
3.7446e-07 -0
3.7634e-07 -0
3.7823e-07 -0
3.8013e-07 -0
3.8204e-07 -0
3.8396e-07 -0
3.8589e-07 -0
3.8783e-07 -0
3.8978e-07 -0
3.9174e-07 -0
3.9371e-07 -0
3.9568e-07 -0
3.9767e-07 -0
3.9967e-07 -0
4.0168e-07 -0
4.037e-07 -0
4.0573e-07 -0
4.0776e-07 -0
4.0981e-07 -0
4.1187e-07 -0
4.1394e-07 -0
4.1602e-07 -0
4.1811e-07 -0
4.2021e-07 -0
4.2232e-07 -0
4.2445e-07 -0
4.2658e-07 -0
4.2872e-07 -0
4.3088e-07 -0
4.3304e-07 -0
4.3522e-07 -0
4.374e-07 -0
4.396e-07 -0
4.4181e-07 -0
4.4403e-07 -0
4.4626e-07 -0
4.485e-07 -0
4.5076e-07 -0
4.5302e-07 -0
4.553e-07 -0
4.5759e-07 -0
4.5989e-07 -0
4.622e-07 -0
4.6452e-07 -0
4.6685e-07 -0
4.692e-07 -0
4.7156e-07 -0
4.7393e-07 -0
4.7631e-07 -0
4.787e-07 -0
4.8111e-07 -0
4.8352e-07 -0
4.8595e-07 -0
4.8839e-07 -0
4.9085e-07 -0
4.9331e-07 -0
4.9579e-07 -0
4.9828e-07 3.3076e-39
5.0079e-07 4.1244e-37
5.033e-07 1.2406e-34
5.0583e-07 8.6423e-39
5.0837e-07 8.1051e-40
5.1093e-07 9.8385e-40
5.135e-07 9.7245e-39
5.1608e-07 1.1673e-34
5.1867e-07 4.3263e-36
5.2127e-07 3.9461e-36
5.2389e-07 7.3073e-35
5.2653e-07 6.1405e-39
5.2917e-07 3.8386e-39
5.3183e-07 1.2353e-36
5.345e-07 4.6287e-35
5.3719e-07 1.1172e-38
5.3989e-07 9.0532e-38
5.426e-07 1.3435e-34
5.4533e-07 2.9318e-35
5.4807e-07 2.8322e-35
5.5082e-07 1.0956e-34
5.5359e-07 1.9649e-38
5.5637e-07 2.0823e-35
5.5917e-07 2.6626e-35
5.6198e-07 2.5822e-38
5.648e-07 1.7365e-34
5.6764e-07 5.9073e-37
5.7049e-07 4.3961e-39
5.7336e-07 4.7069e-39
5.7624e-07 4.5313e-38
5.7913e-07 1.2872e-34
5.8204e-07 2.4408e-34
5.8497e-07 1.5836e-34
5.8791e-07 2.3456e-34
5.9086e-07 6.3621e-38
5.9383e-07 2.8614e-38
5.9681e-07 1.9754e-34
5.9981e-07 2.3784e-35
6.0282e-07 2.9242e-35
6.0585e-07 5.0521e-34
6.089e-07 5.1093e-34
6.1196e-07 1.1624e-34
6.1503e-07 8.4306e-35
6.1812e-07 9.7181e-38
6.2123e-07 1.3403e-34
6.2435e-07 1.3039e-37
6.2749e-07 7.8341e-34
6.3064e-07 4.269e-34
6.3381e-07 5.7882e-35
6.3699e-07 2.8466e-38
6.4019e-07 1.8501e-36
6.4341e-07 1.6166e-34
6.4664e-07 2.2899e-37
6.4989e-07 1.3644e-33
6.5316e-07 5.0311e-34
6.5644e-07 7.4198e-33
6.5974e-07 1.8451e-33
6.6305e-07 1.6103e-33
6.6638e-07 1.6876e-34
6.6973e-07 2.1157e-34
6.731e-07 6.901e-37
6.7648e-07 1.6366e-38
6.7988e-07 1.5821e-37
6.8329e-07 1.08e-34
6.8673e-07 2.4328e-38
6.9018e-07 1.7622e-38
6.9365e-07 4.7778e-35
6.9713e-07 1.5092e-34
7.0063e-07 1.2271e-37
7.0415e-07 5.7994e-37
7.0769e-07 3.0096e-34
7.1125e-07 1.2111e-32
7.1482e-07 1.7984e-32
7.1841e-07 2.3607e-32
7.2202e-07 7.0113e-33
7.2565e-07 2.7462e-33
7.293e-07 1.3076e-33
7.3296e-07 2.0653e-34
7.3664e-07 1.0464e-34
7.4035e-07 1.3872e-34
7.4407e-07 2.409e-38
7.478e-07 7.1884e-39
7.5156e-07 1.0502e-38
7.5534e-07 4.1048e-37
7.5913e-07 2.4155e-34
7.6295e-07 2.9636e-38
7.6678e-07 2.0453e-38
7.7063e-07 7.1918e-36
7.7451e-07 2.539e-34
7.784e-07 3.9487e-35
7.8231e-07 2.0925e-31
7.8624e-07 6.7717e-32
7.9019e-07 1.0871e-31
7.9416e-07 1.8741e-32
7.9815e-07 3.2769e-33
8.0216e-07 5.5381e-33
8.0619e-07 2.0654e-33
8.1024e-07 1.9099e-33
8.1431e-07 4.5219e-34
8.1841e-07 1.087e-33
8.2252e-07 3.4381e-33
8.2665e-07 4.5166e-34
8.308e-07 9.5223e-33
8.3498e-07 7.4193e-34
8.3917e-07 3.7783e-33
8.4339e-07 3.1503e-34
8.4763e-07 2.4981e-37
8.5189e-07 7.0767e-34
8.5617e-07 2.9901e-35
8.6047e-07 5.591e-35
8.6479e-07 2.1348e-34
8.6914e-07 7.0606e-31
8.735e-07 2.6793e-31
8.7789e-07 4.5587e-32
8.823e-07 4.3529e-33
8.8674e-07 1.1588e-33
8.9119e-07 4.2524e-33
8.9567e-07 2.1938e-32
9.0017e-07 3.7661e-33
9.0469e-07 3.9257e-35
9.0924e-07 5.5097e-32
9.1381e-07 1.7913e-32
9.184e-07 1.0209e-32
9.2301e-07 3.6615e-31
9.2765e-07 4.1297e-32
9.3231e-07 2.9048e-31
9.37e-07 1.5226e-31
9.4171e-07 1.0309e-32
9.4644e-07 3.2528e-32
9.5119e-07 5.5269e-33
9.5597e-07 2.4841e-33
9.6078e-07 3.1225e-34
9.656e-07 5.0918e-33
9.7046e-07 1.4857e-33
9.7533e-07 5.6078e-34
9.8023e-07 2.9802e-32
9.8516e-07 7.154e-33
9.9011e-07 3.2601e-33
9.9508e-07 1.7049e-32
1.0001e-06 2.2613e-33
1.0051e-06 3.6661e-36
1.0102e-06 4.5442e-33
1.0152e-06 1.3697e-32
1.0203e-06 1.221e-33
1.0255e-06 2.6848e-34
1.0306e-06 2.3615e-33
1.0358e-06 1.552e-30
1.041e-06 1.5682e-30
1.0462e-06 5.2204e-31
1.0515e-06 6.9568e-30
1.0568e-06 1.1198e-30
1.0621e-06 8.575e-31
1.0674e-06 9.781e-31
1.0728e-06 3.5901e-31
1.0782e-06 1.5639e-31
1.0836e-06 2.5512e-32
1.089e-06 3.8465e-32
1.0945e-06 1.0675e-31
1.1e-06 2.764e-32