File: material/gas/smooth_input/co2_uv_vis_toa_T0_P1.txt
2.8e-07 -0
2.814e-07 -0
2.8282e-07 -0
2.8423e-07 -0
2.8566e-07 -0
2.8709e-07 -0
2.8853e-07 -0
2.8998e-07 -0
2.9143e-07 -0
2.929e-07 -0
2.9437e-07 -0
2.9584e-07 -0
2.9733e-07 -0
2.9882e-07 -0
3.0032e-07 -0
3.0182e-07 -0
3.0334e-07 -0
3.0486e-07 -0
3.0639e-07 -0
3.0792e-07 -0
3.0947e-07 -0
3.1102e-07 -0
3.1258e-07 -0
3.1415e-07 -0
3.1572e-07 -0
3.1731e-07 -0
3.189e-07 -0
3.205e-07 -0
3.2211e-07 -0
3.2372e-07 -0
3.2535e-07 -0
3.2698e-07 -0
3.2862e-07 -0
3.3027e-07 -0
3.3192e-07 -0
3.3359e-07 -0
3.3526e-07 -0
3.3694e-07 -0
3.3863e-07 -0
3.4033e-07 -0
3.4204e-07 -0
3.4375e-07 -0
3.4548e-07 -0
3.4721e-07 -0
3.4895e-07 -0
3.507e-07 -0
3.5246e-07 -0
3.5423e-07 -0
3.5601e-07 -0
3.5779e-07 -0
3.5959e-07 -0
3.6139e-07 -0
3.632e-07 -0
3.6502e-07 -0
3.6686e-07 -0
3.687e-07 -0
3.7054e-07 -0
3.724e-07 -0
3.7427e-07 -0
3.7615e-07 -0
3.7804e-07 -0
3.7993e-07 -0
3.8184e-07 -0
3.8375e-07 -0
3.8568e-07 -0
3.8761e-07 -0
3.8956e-07 -0
3.9151e-07 -0
3.9347e-07 -0
3.9545e-07 -0
3.9743e-07 -0
3.9942e-07 -0
4.0143e-07 -0
4.0344e-07 -0
4.0546e-07 -0
4.075e-07 -0
4.0954e-07 -0
4.116e-07 -0
4.1366e-07 -0
4.1574e-07 -0
4.1782e-07 -0
4.1992e-07 -0
4.2202e-07 -0
4.2414e-07 -0
4.2627e-07 -0
4.2841e-07 -0
4.3055e-07 -0
4.3271e-07 -0
4.3488e-07 -0
4.3707e-07 -0
4.3926e-07 -0
4.4146e-07 -0
4.4368e-07 -0
4.459e-07 -0
4.4814e-07 -0
4.5038e-07 -0
4.5264e-07 -0
4.5491e-07 -0
4.572e-07 -0
4.5949e-07 -0
4.6179e-07 -0
4.6411e-07 -0
4.6644e-07 -0
4.6878e-07 -0
4.7113e-07 -0
4.7349e-07 -0
4.7587e-07 -0
4.7825e-07 -0
4.8065e-07 -0
4.8306e-07 -0
4.8549e-07 -0
4.8792e-07 -0
4.9037e-07 -0
4.9283e-07 -0
4.953e-07 -0
4.9779e-07 1.7206e-39
5.0028e-07 1.1581e-38
5.0279e-07 2.2099e-34
5.0531e-07 1.0138e-38
5.0785e-07 1.4437e-39
5.104e-07 -1.6658e-41
5.1296e-07 5.3631e-39
5.1553e-07 1.4742e-36
5.1811e-07 1.3439e-37
5.2071e-07 1.6947e-38
5.2332e-07 1.3852e-34
5.2595e-07 7.3364e-39
5.2859e-07 3.1553e-39
5.3124e-07 1.1041e-38
5.339e-07 1.4541e-34
5.3658e-07 1.0025e-38
5.3927e-07 1.566e-38
5.4198e-07 2.4335e-34
5.447e-07 1.1876e-35
5.4743e-07 7.2017e-35
5.5017e-07 3.0247e-34
5.5293e-07 2.1609e-38
5.5571e-07 2.3764e-38
5.5849e-07 3.5771e-35
5.613e-07 1.4766e-38
5.6411e-07 1.0267e-34
5.6694e-07 2.0664e-36
5.6978e-07 5.3985e-39
5.7264e-07 2.9186e-39
5.7551e-07 1.2735e-38
5.784e-07 1.9975e-34
5.813e-07 2.2882e-37
5.8422e-07 1.9801e-34
5.8715e-07 1.6503e-34
5.9009e-07 8.3069e-38
5.9305e-07 1.9507e-38
5.9603e-07 1.6715e-35
5.9902e-07 4.0141e-35
6.0202e-07 8.5051e-38
6.0504e-07 7.7004e-34
6.0808e-07 8.5094e-37
6.1113e-07 2.5984e-34
6.1419e-07 1.2882e-34
6.1727e-07 7.9125e-38
6.2037e-07 1.5707e-34
6.2348e-07 7.8145e-38
6.2661e-07 8.3445e-37
6.2975e-07 4.1689e-34
6.3291e-07 9.4206e-35
6.3608e-07 3.5766e-38
6.3927e-07 2.7148e-38
6.4248e-07 3.7132e-34
6.457e-07 1.1994e-37
6.4894e-07 1.8392e-36
6.522e-07 9.1089e-34
6.5547e-07 6.6941e-33
6.5876e-07 1.2932e-33
6.6206e-07 2.802e-33
6.6538e-07 2.6357e-34
6.6872e-07 1.869e-34
6.7207e-07 7.1576e-36
6.7544e-07 1.6886e-38
6.7883e-07 1.6763e-38
6.8224e-07 1.5697e-34
6.8566e-07 3.4054e-38
6.891e-07 1.109e-38
6.9255e-07 3.9612e-38
6.9603e-07 4.4364e-34
6.9952e-07 4.0419e-38
7.0303e-07 3.3993e-37
7.0655e-07 5.8754e-35
7.101e-07 1.1338e-32
7.1366e-07 2.3601e-33
7.1724e-07 3.4586e-32
7.2084e-07 2.8248e-33
7.2445e-07 6.5533e-33
7.2809e-07 1.7164e-33
7.3174e-07 3.7962e-35
7.3541e-07 2.112e-34
7.391e-07 1.3103e-34
7.428e-07 3.989e-38
7.4653e-07 6.0489e-39
7.5027e-07 7.7792e-39
7.5404e-07 2.03e-38
7.5782e-07 1.5254e-34
7.6162e-07 4.1914e-38
7.6544e-07 1.4951e-38
7.6928e-07 8.0391e-38
7.7314e-07 4.1214e-34
7.7702e-07 1.6763e-35
7.8091e-07 4.0838e-34
7.8483e-07 1.4056e-31
7.8877e-07 1.8734e-31
7.9272e-07 1.8868e-32
7.967e-07 9.5758e-33
8.007e-07 1.2807e-33
8.0471e-07 4.3513e-33
8.0875e-07 9.5569e-34
8.1281e-07 1.2611e-33
8.1688e-07 7.535e-37
8.2098e-07 4.4675e-33
8.251e-07 2.7579e-34
8.2924e-07 1.6317e-32
8.334e-07 2.5549e-33
8.3758e-07 1.5817e-33
8.4178e-07 1.801e-33
8.46e-07 2.9324e-37
8.5024e-07 1.5246e-35
8.5451e-07 2.2736e-34
8.5879e-07 3.9046e-35
8.631e-07 1.8174e-34
8.6743e-07 8.6495e-34
8.7178e-07 4.8481e-31
8.7615e-07 9.0657e-32
8.8055e-07 1.0711e-32
8.8496e-07 1.3382e-33
8.894e-07 7.6758e-35
8.9386e-07 3.5532e-32
8.9835e-07 8.6637e-33
9.0285e-07 4.9571e-34
9.0738e-07 3.0717e-33
9.1193e-07 4.3545e-32
9.1651e-07 1.1672e-33
9.211e-07 4.2144e-31
9.2572e-07 1.2964e-31
9.3037e-07 1.0815e-31
9.3503e-07 2.4119e-31
9.3972e-07 1.9234e-32
9.4444e-07 3.8841e-32
9.4918e-07 1.4278e-32
9.5394e-07 3.762e-33
9.5872e-07 2.9304e-36
9.6353e-07 3.1944e-33
9.6836e-07 2.7472e-33
9.7322e-07 2.3058e-33
9.781e-07 8.9676e-33
9.8301e-07 1.9891e-32
9.8794e-07 1.3896e-33
9.9289e-07 2.2415e-32
9.9787e-07 7.6022e-33
1.0029e-06 1.1974e-34
1.0079e-06 1.5712e-34
1.013e-06 2.2506e-32
1.018e-06 2.547e-33
1.0232e-06 3.2905e-34
1.0283e-06 7.881e-34
1.03e-06 1.9022e-33