File: material/gas/smooth_input/co2_uv_vis_toa_T0_P0.txt
2.8e-07 -0
2.814e-07 -0
2.8282e-07 -0
2.8423e-07 -0
2.8566e-07 -0
2.8709e-07 -0
2.8853e-07 -0
2.8998e-07 -0
2.9143e-07 -0
2.929e-07 -0
2.9437e-07 -0
2.9584e-07 -0
2.9733e-07 -0
2.9882e-07 -0
3.0032e-07 -0
3.0182e-07 -0
3.0334e-07 -0
3.0486e-07 -0
3.0639e-07 -0
3.0792e-07 -0
3.0947e-07 -0
3.1102e-07 -0
3.1258e-07 -0
3.1415e-07 -0
3.1572e-07 -0
3.1731e-07 -0
3.189e-07 -0
3.205e-07 -0
3.2211e-07 -0
3.2372e-07 -0
3.2535e-07 -0
3.2698e-07 -0
3.2862e-07 -0
3.3027e-07 -0
3.3192e-07 -0
3.3359e-07 -0
3.3526e-07 -0
3.3694e-07 -0
3.3863e-07 -0
3.4033e-07 -0
3.4204e-07 -0
3.4375e-07 -0
3.4548e-07 -0
3.4721e-07 -0
3.4895e-07 -0
3.507e-07 -0
3.5246e-07 -0
3.5423e-07 -0
3.5601e-07 -0
3.5779e-07 -0
3.5959e-07 -0
3.6139e-07 -0
3.632e-07 -0
3.6502e-07 -0
3.6686e-07 -0
3.687e-07 -0
3.7054e-07 -0
3.724e-07 -0
3.7427e-07 -0
3.7615e-07 -0
3.7804e-07 -0
3.7993e-07 -0
3.8184e-07 -0
3.8375e-07 -0
3.8568e-07 -0
3.8761e-07 -0
3.8956e-07 -0
3.9151e-07 -0
3.9347e-07 -0
3.9545e-07 -0
3.9743e-07 -0
3.9942e-07 -0
4.0143e-07 -0
4.0344e-07 -0
4.0546e-07 -0
4.075e-07 -0
4.0954e-07 -0
4.116e-07 -0
4.1366e-07 -0
4.1574e-07 -0
4.1782e-07 -0
4.1992e-07 -0
4.2202e-07 -0
4.2414e-07 -0
4.2627e-07 -0
4.2841e-07 -0
4.3055e-07 -0
4.3271e-07 -0
4.3488e-07 -0
4.3707e-07 -0
4.3926e-07 -0
4.4146e-07 -0
4.4368e-07 -0
4.459e-07 -0
4.4814e-07 -0
4.5038e-07 -0
4.5264e-07 -0
4.5491e-07 -0
4.572e-07 -0
4.5949e-07 -0
4.6179e-07 -0
4.6411e-07 -0
4.6644e-07 -0
4.6878e-07 -0
4.7113e-07 -0
4.7349e-07 -0
4.7587e-07 -0
4.7825e-07 -0
4.8065e-07 -0
4.8306e-07 -0
4.8549e-07 -0
4.8792e-07 -0
4.9037e-07 -0
4.9283e-07 -0
4.953e-07 -0
4.9779e-07 1.9764e-39
5.0028e-07 1.2886e-38
5.0279e-07 2.207e-34
5.0531e-07 1.1209e-38
5.0785e-07 1.5448e-39
5.104e-07 -3.748e-42
5.1296e-07 5.9731e-39
5.1553e-07 1.5774e-36
5.1811e-07 1.4926e-37
5.2071e-07 1.8809e-38
5.2332e-07 1.384e-34
5.2595e-07 8.1001e-39
5.2859e-07 3.5594e-39
5.3124e-07 1.2422e-38
5.339e-07 1.4489e-34
5.3658e-07 1.1371e-38
5.3927e-07 1.7617e-38
5.4198e-07 2.4458e-34
5.447e-07 1.1729e-35
5.4743e-07 6.9866e-35
5.5017e-07 3.0357e-34
5.5293e-07 2.3895e-38
5.5571e-07 2.643e-38
5.5849e-07 3.5804e-35
5.613e-07 1.6329e-38
5.6411e-07 1.0176e-34
5.6694e-07 2.191e-36
5.6978e-07 5.7719e-39
5.7264e-07 3.2377e-39
5.7551e-07 1.4155e-38
5.784e-07 1.9996e-34
5.813e-07 2.5389e-37
5.8422e-07 1.9717e-34
5.8715e-07 1.6437e-34
5.9009e-07 9.2231e-38
5.9305e-07 2.2439e-38
5.9603e-07 1.7637e-35
5.9902e-07 4.0149e-35
6.0202e-07 9.4477e-38
6.0504e-07 7.8095e-34
6.0808e-07 9.4538e-37
6.1113e-07 2.6048e-34
6.1419e-07 1.2581e-34
6.1727e-07 8.7833e-38
6.2037e-07 1.5637e-34
6.2348e-07 8.6733e-38
6.2661e-07 9.2533e-37
6.2975e-07 4.1754e-34
6.3291e-07 9.3753e-35
6.3608e-07 3.9618e-38
6.3927e-07 3.0242e-38
6.4248e-07 3.7055e-34
6.457e-07 1.329e-37
6.4894e-07 2.0464e-36
6.522e-07 9.1595e-34
6.5547e-07 6.7518e-33
6.5876e-07 1.2694e-33
6.6206e-07 2.824e-33
6.6538e-07 2.6049e-34
6.6872e-07 1.8893e-34
6.7207e-07 7.1062e-36
6.7544e-07 1.8758e-38
6.7883e-07 1.8599e-38
6.8224e-07 1.5792e-34
6.8566e-07 3.7747e-38
6.891e-07 1.2784e-38
6.9255e-07 4.4237e-38
6.9603e-07 4.3996e-34
6.9952e-07 4.474e-38
7.0303e-07 3.7937e-37
7.0655e-07 6.0655e-35
7.101e-07 1.1318e-32
7.1366e-07 2.3672e-33
7.1724e-07 3.4451e-32
7.2084e-07 2.8079e-33
7.2445e-07 6.5215e-33
7.2809e-07 1.7163e-33
7.3174e-07 3.6509e-35
7.3541e-07 2.1209e-34
7.391e-07 1.3108e-34
7.428e-07 4.4009e-38
7.4653e-07 6.6702e-39
7.5027e-07 8.6923e-39
7.5404e-07 2.2551e-38
7.5782e-07 1.5459e-34
7.6162e-07 4.6414e-38
7.6544e-07 1.6839e-38
7.6928e-07 9.131e-38
7.7314e-07 4.1088e-34
7.7702e-07 1.8587e-35
7.8091e-07 4.5315e-34
7.8483e-07 1.4098e-31
7.8877e-07 1.8998e-31
7.9272e-07 1.933e-32
7.967e-07 9.7794e-33
8.007e-07 1.2848e-33
8.0471e-07 4.4944e-33
8.0875e-07 9.5922e-34
8.1281e-07 1.2511e-33
8.1688e-07 8.3642e-37
8.2098e-07 4.4148e-33
8.251e-07 2.7575e-34
8.2924e-07 1.6268e-32
8.334e-07 2.5559e-33
8.3758e-07 1.5958e-33
8.4178e-07 1.8084e-33
8.46e-07 3.2419e-37
8.5024e-07 1.6275e-35
8.5451e-07 2.299e-34
8.5879e-07 4.3181e-35
8.631e-07 1.8687e-34
8.6743e-07 9.557e-34
8.7178e-07 4.8895e-31
8.7615e-07 9.1425e-32
8.8055e-07 1.0702e-32
8.8496e-07 1.3475e-33
8.894e-07 7.7764e-35
8.9386e-07 3.5949e-32
8.9835e-07 8.8234e-33
9.0285e-07 4.9509e-34
9.0738e-07 3.0506e-33
9.1193e-07 4.3994e-32
9.1651e-07 1.171e-33
9.211e-07 4.3087e-31
9.2572e-07 1.2981e-31
9.3037e-07 1.0262e-31
9.3503e-07 2.4063e-31
9.3972e-07 1.9157e-32
9.4444e-07 3.9513e-32
9.4918e-07 1.4689e-32
9.5394e-07 3.6892e-33
9.5872e-07 3.1809e-36
9.6353e-07 3.1936e-33
9.6836e-07 2.7473e-33
9.7322e-07 2.3179e-33
9.781e-07 8.867e-33
9.8301e-07 1.9979e-32
9.8794e-07 1.3953e-33
9.9289e-07 2.257e-32
9.9787e-07 7.6456e-33
1.0029e-06 1.2434e-34
1.0079e-06 1.5781e-34
1.013e-06 2.2746e-32
1.018e-06 2.5735e-33
1.0232e-06 3.4801e-34
1.0283e-06 8.367e-34
1.03e-06 1.9961e-33