File: material/gas/smooth_input/co2_uv_vis_T0_P1.txt
2.8e-07 0
2.8131e-07 0
2.8263e-07 0
2.8395e-07 0
2.8528e-07 0
2.8662e-07 0
2.8796e-07 0
2.8931e-07 0
2.9066e-07 0
2.9202e-07 0
2.9339e-07 0
2.9476e-07 0
2.9614e-07 0
2.9753e-07 0
2.9892e-07 0
3.0032e-07 0
3.0173e-07 0
3.0314e-07 0
3.0456e-07 0
3.0598e-07 0
3.0742e-07 0
3.0885e-07 0
3.103e-07 0
3.1175e-07 0
3.1321e-07 0
3.1468e-07 0
3.1615e-07 0
3.1763e-07 0
3.1912e-07 0
3.2061e-07 0
3.2211e-07 0
3.2362e-07 0
3.2514e-07 0
3.2666e-07 0
3.2819e-07 0
3.2972e-07 0
3.3127e-07 0
3.3282e-07 0
3.3438e-07 0
3.3594e-07 0
3.3752e-07 0
3.391e-07 0
3.4068e-07 0
3.4228e-07 0
3.4388e-07 0
3.4549e-07 0
3.4711e-07 0
3.4873e-07 0
3.5036e-07 0
3.52e-07 0
3.5365e-07 0
3.5531e-07 0
3.5697e-07 0
3.5864e-07 0
3.6032e-07 0
3.6201e-07 0
3.637e-07 0
3.6541e-07 0
3.6712e-07 0
3.6884e-07 0
3.7056e-07 0
3.723e-07 0
3.7404e-07 0
3.7579e-07 0
3.7755e-07 0
3.7932e-07 0
3.8109e-07 0
3.8288e-07 0
3.8467e-07 0
3.8647e-07 0
3.8828e-07 0
3.901e-07 0
3.9192e-07 0
3.9376e-07 0
3.956e-07 0
3.9745e-07 0
3.9931e-07 0
4.0118e-07 0
4.0306e-07 0
4.0495e-07 0
4.0684e-07 0
4.0875e-07 0
4.1066e-07 0
4.1258e-07 0
4.1452e-07 0
4.1646e-07 0
4.1841e-07 0
4.2037e-07 0
4.2233e-07 0
4.2431e-07 0
4.263e-07 0
4.2829e-07 0
4.303e-07 0
4.3231e-07 0
4.3434e-07 0
4.3637e-07 0
4.3841e-07 0
4.4046e-07 0
4.4253e-07 0
4.446e-07 0
4.4668e-07 0
4.4877e-07 0
4.5087e-07 0
4.5298e-07 0
4.551e-07 0
4.5723e-07 0
4.5937e-07 0
4.6152e-07 0
4.6368e-07 0
4.6586e-07 0
4.6804e-07 0
4.7023e-07 0
4.7243e-07 0
4.7464e-07 0
4.7686e-07 0
4.7909e-07 0
4.8134e-07 0
4.8359e-07 0
4.8585e-07 0
4.8813e-07 0
4.9041e-07 0
4.9271e-07 0
4.9502e-07 0
4.9733e-07 5.9443e-40
4.9966e-07 7.1884e-39
5.02e-07 6.222e-35
5.0435e-07 3.4469e-38
5.0671e-07 4.2189e-39
5.0909e-07 2.0441e-41
5.1147e-07 1.485e-39
5.1386e-07 9.9901e-39
5.1627e-07 2.032e-34
5.1869e-07 2.8151e-38
5.2111e-07 2.2255e-38
5.2355e-07 7.2426e-35
5.26e-07 7.1338e-39
5.2847e-07 3.2499e-39
5.3094e-07 8.4251e-39
5.3343e-07 1.5149e-34
5.3592e-07 1.3875e-38
5.3843e-07 1.1159e-38
5.4095e-07 1.1367e-35
5.4349e-07 6.254e-35
5.4603e-07 7.6145e-35
5.4859e-07 9.8987e-37
5.5115e-07 5.0068e-35
5.5373e-07 1.47e-38
5.5633e-07 1.2091e-36
5.5893e-07 4.6221e-36
5.6155e-07 1.5658e-38
5.6418e-07 1.1575e-34
5.6682e-07 6.5202e-36
5.6947e-07 6.1239e-39
5.7214e-07 1.9472e-39
5.7482e-07 7.8012e-39
5.7751e-07 3.5327e-36
5.8021e-07 1.0344e-36
5.8293e-07 7.4333e-34
5.8565e-07 8.153e-35
5.884e-07 3.7537e-34
5.9115e-07 3.2708e-38
5.9392e-07 2.2769e-38
5.967e-07 2.1309e-34
5.9949e-07 3.6724e-35
6.023e-07 1.0331e-37
6.0512e-07 7.2057e-34
6.0795e-07 1.1456e-36
6.108e-07 3.7712e-34
6.1366e-07 9.5913e-35
6.1653e-07 1.9301e-35
6.1942e-07 3.567e-36
6.2232e-07 4.8528e-37
6.2523e-07 1.6653e-37
6.2816e-07 1.5023e-33
6.311e-07 2.5647e-34
6.3405e-07 1.304e-37
6.3702e-07 2.2385e-38
6.4e-07 4.2994e-38
6.43e-07 3.7648e-34
6.4601e-07 1.2761e-37
6.4903e-07 5.8279e-35
6.5207e-07 1.2795e-33
6.5512e-07 2.3133e-33
6.5819e-07 2.8374e-33
6.6127e-07 4.811e-33
6.6437e-07 5.0304e-34
6.6748e-07 1.2256e-34
6.706e-07 2.7202e-34
6.7374e-07 3.1736e-38
6.769e-07 1.3571e-38
6.8006e-07 3.3104e-38
6.8325e-07 2.0801e-34
6.8645e-07 2.0182e-38
6.8966e-07 1.3327e-38
6.9289e-07 5.2635e-38
6.9613e-07 4.6942e-34
6.9939e-07 4.2631e-38
7.0267e-07 3.0838e-37
7.0595e-07 2.4043e-36
7.0926e-07 2.8041e-34
7.1258e-07 7.7755e-33
7.1592e-07 5.9894e-32
7.1927e-07 8.8451e-33
7.2263e-07 1.2991e-32
7.2602e-07 1.1293e-33
7.2942e-07 1.5308e-33
7.3283e-07 1.6375e-34
7.3626e-07 1.0967e-34
7.3971e-07 2.7647e-34
7.4317e-07 3.0569e-38
7.4665e-07 5.7527e-39
7.5015e-07 7.6351e-39
7.5366e-07 1.7176e-38
7.5719e-07 3.8777e-35
7.6073e-07 6.6103e-36
7.6429e-07 1.8034e-38
7.6787e-07 2.0664e-38
7.7146e-07 1.2416e-35
7.7508e-07 7.0139e-35
7.787e-07 3.4886e-35
7.8235e-07 3.3319e-31
7.8601e-07 5.189e-32
7.8969e-07 1.1645e-31
7.9339e-07 2.0282e-32
7.971e-07 6.2503e-33
8.0083e-07 8.6332e-34
8.0458e-07 4.5625e-33
8.0835e-07 4.758e-34
8.1213e-07 2.4463e-33
8.1594e-07 6.2348e-37
8.1976e-07 4.1575e-33
8.2359e-07 1.3882e-33
8.2745e-07 1.3032e-34
8.3132e-07 1.0692e-32
8.3522e-07 2.4196e-34
8.3913e-07 5.2495e-33
8.4305e-07 3.9488e-34
8.47e-07 2.2061e-37
8.5097e-07 2.431e-34
8.5495e-07 1.1451e-34
8.5895e-07 4.0475e-35
8.6297e-07 1.6515e-34
8.6701e-07 4.9806e-34
8.7107e-07 5.8933e-31
8.7515e-07 1.1555e-31
8.7925e-07 2.0088e-32
8.8336e-07 1.6978e-33
8.875e-07 5.8814e-34
8.9165e-07 1.8835e-34
8.9583e-07 2.0435e-32
9.0002e-07 3.6172e-33
9.0423e-07 3.6108e-35
9.0847e-07 4.6459e-32
9.1272e-07 3.0133e-32
9.1699e-07 1.4642e-33
9.2129e-07 5.0274e-31
9.256e-07 1.1718e-31
9.2993e-07 1.5326e-32
9.3429e-07 2.3826e-31
9.3866e-07 2.5776e-32
9.4305e-07 5.0305e-33
9.4747e-07 1.9982e-32
9.5e-07 8.7605e-33