File: material/gas/smooth_input/h2o_uv_vis_T1_P0.txt
2.8e-07 0
2.8131e-07 0
2.8263e-07 0
2.8395e-07 0
2.8528e-07 0
2.8662e-07 0
2.8796e-07 0
2.8931e-07 0
2.9066e-07 0
2.9202e-07 0
2.9339e-07 0
2.9476e-07 0
2.9614e-07 0
2.9753e-07 0
2.9892e-07 0
3.0032e-07 0
3.0173e-07 0
3.0314e-07 0
3.0456e-07 0
3.0598e-07 0
3.0742e-07 0
3.0885e-07 0
3.103e-07 0
3.1175e-07 0
3.1321e-07 0
3.1468e-07 0
3.1615e-07 0
3.1763e-07 0
3.1912e-07 0
3.2061e-07 0
3.2211e-07 0
3.2362e-07 0
3.2514e-07 0
3.2666e-07 0
3.2819e-07 0
3.2972e-07 0
3.3127e-07 0
3.3282e-07 0
3.3438e-07 0
3.3594e-07 0
3.3752e-07 0
3.391e-07 0
3.4068e-07 0
3.4228e-07 0
3.4388e-07 0
3.4549e-07 0
3.4711e-07 0
3.4873e-07 0
3.5036e-07 0
3.52e-07 0
3.5365e-07 0
3.5531e-07 0
3.5697e-07 0
3.5864e-07 0
3.6032e-07 0
3.6201e-07 0
3.637e-07 0
3.6541e-07 0
3.6712e-07 0
3.6884e-07 0
3.7056e-07 0
3.723e-07 0
3.7404e-07 0
3.7579e-07 0
3.7755e-07 0
3.7932e-07 0
3.8109e-07 0
3.8288e-07 0
3.8467e-07 0
3.8647e-07 9.5907e-37
3.8828e-07 9.1814e-35
3.901e-07 9.3717e-32
3.9192e-07 6.359e-32
3.9376e-07 3.3521e-32
3.956e-07 7.4774e-32
3.9745e-07 1.1812e-30
3.9931e-07 6.1291e-31
4.0118e-07 2.5634e-31
4.0306e-07 1.1116e-31
4.0495e-07 3.8564e-32
4.0684e-07 7.1713e-33
4.0875e-07 1.0633e-32
4.1066e-07 8.1178e-35
4.1258e-07 3.9222e-32
4.1452e-07 1.1496e-31
4.1646e-07 7.3469e-31
4.1841e-07 3.2662e-31
4.2037e-07 1.1089e-31
4.2233e-07 2.4855e-32
4.2431e-07 4.8786e-33
4.263e-07 2.0489e-31
4.2829e-07 8.4366e-32
4.303e-07 4.5024e-32
4.3231e-07 5.0507e-33
4.3434e-07 5.8519e-36
4.3637e-07 4.127e-33
4.3841e-07 3.9941e-32
4.4046e-07 3.7752e-31
4.4253e-07 3.9546e-30
4.446e-07 2.3243e-30
4.4668e-07 1.5317e-30
4.4877e-07 4.6859e-31
4.5087e-07 8.9228e-32
4.5298e-07 1.0678e-31
4.551e-07 8.0923e-32
4.5723e-07 8.8248e-32
4.5937e-07 4.7872e-32
4.6152e-07 6.9456e-33
4.6368e-07 6.0598e-33
4.6586e-07 8.222e-32
4.6804e-07 6.2031e-31
4.7023e-07 1.584e-30
4.7243e-07 1.0288e-30
4.7464e-07 5.3504e-31
4.7686e-07 1.4255e-31
4.7909e-07 1.4337e-32
4.8134e-07 4.866e-33
4.8359e-07 2.1511e-31
4.8585e-07 1.3176e-30
4.8813e-07 1.0957e-30
4.9041e-07 6.8703e-31
4.9271e-07 3.2333e-31
4.9502e-07 5.9972e-32
4.9733e-07 7.411e-32
4.9966e-07 1.0071e-30
5.02e-07 5.5585e-30
5.0435e-07 2.1654e-29
5.0671e-07 1.2635e-29
5.0909e-07 7.9371e-30
5.1147e-07 2.6862e-30
5.1386e-07 5.4594e-31
5.1627e-07 2.0571e-31
5.1869e-07 1.086e-31
5.2111e-07 6.9513e-32
5.2355e-07 9.224e-31
5.26e-07 4.8681e-31
5.2847e-07 8.279e-31
5.3094e-07 8.6971e-31
5.3343e-07 2.9581e-31
5.3592e-07 4.5303e-31
5.3843e-07 1.3672e-30
5.4095e-07 9.7641e-30
5.4349e-07 8.3952e-30
5.4603e-07 9.8403e-30
5.4859e-07 3.1005e-30
5.5115e-07 1.7023e-30
5.5373e-07 3.743e-31
5.5633e-07 6.5541e-32
5.5893e-07 2.7773e-31
5.6155e-07 5.1467e-31
5.6418e-07 6.1216e-31
5.6682e-07 2.1072e-30
5.6947e-07 1.9872e-29
5.7214e-07 1.4049e-29
5.7482e-07 1.2068e-29
5.7751e-07 7.7589e-30
5.8021e-07 2.5975e-30
5.8293e-07 3.205e-30
5.8565e-07 6.0439e-30
5.884e-07 7.4683e-29
5.9115e-07 7.5551e-29
5.9392e-07 6.6951e-29
5.967e-07 5.0883e-29
5.9949e-07 2.679e-29
6.023e-07 6.5937e-30
6.0512e-07 1.4164e-30
6.0795e-07 3.8451e-31
6.108e-07 1.1948e-31
6.1366e-07 5.0863e-32
6.1653e-07 7.6378e-32
6.1942e-07 1.4898e-31
6.2232e-07 2.4346e-31
6.2523e-07 1.662e-30
6.2816e-07 1.6512e-29
6.311e-07 4.5696e-30
6.3405e-07 7.1578e-30
6.3702e-07 6.6759e-30
6.4e-07 5.2774e-30
6.43e-07 6.3761e-30
6.4601e-07 3.1489e-29
6.4903e-07 6.9596e-29
6.5207e-07 8.0227e-29
6.5512e-07 5.0916e-29
6.5819e-07 2.6136e-29
6.6127e-07 6.8702e-30
6.6437e-07 3.8776e-30
6.6748e-07 1.3688e-30
6.706e-07 3.3685e-31
6.7374e-07 1.0097e-31
6.769e-07 2.6714e-31
6.8006e-07 1.0185e-30
6.8325e-07 2.5243e-30
6.8645e-07 4.9833e-30
6.8966e-07 4.61e-30
6.9289e-07 1.0879e-28
6.9613e-07 1.2631e-28
6.9939e-07 1.2888e-28
7.0267e-07 1.1258e-28
7.0595e-07 6.9631e-29
7.0926e-07 3.9772e-29
7.1258e-07 3.1305e-29
7.1592e-07 9.204e-29
7.1927e-07 6.0232e-28
7.2263e-07 1.8942e-28
7.2602e-07 4.0253e-28
7.2942e-07 3.811e-28
7.3283e-07 1.6133e-28
7.3626e-07 1.1601e-28
7.3971e-07 5.6229e-29
7.4317e-07 1.299e-29
7.4665e-07 3.7258e-30
7.5015e-07 1.8589e-30
7.5366e-07 7.0074e-31
7.5719e-07 4.3158e-31
7.6073e-07 3.1019e-31
7.6429e-07 1.1112e-31
7.6787e-07 3.1107e-32
7.7146e-07 1.1877e-31
7.7508e-07 2.9017e-31
7.787e-07 5.8094e-31
7.8235e-07 1.9076e-30
7.8601e-07 1.5037e-29
7.8969e-07 8.079e-29
7.9339e-07 3.8484e-29
7.971e-07 6.9903e-29
8.0083e-07 7.8431e-29
8.0458e-07 6.1823e-29
8.0835e-07 4.5811e-29
8.1213e-07 1.5903e-28
8.1594e-07 5.6416e-28
8.1976e-07 4.0291e-28
8.2359e-07 6.4681e-28
8.2745e-07 3.089e-28
8.3132e-07 2.5927e-28
8.3522e-07 1.3066e-28
8.3913e-07 6.4091e-29
8.4305e-07 2.9614e-29
8.47e-07 1.0555e-29
8.5097e-07 2.0231e-29
8.5495e-07 1.3144e-29
8.5895e-07 5.5903e-30
8.6297e-07 1.806e-30
8.6701e-07 4.1515e-31
8.7107e-07 5.7938e-31
8.7515e-07 1.3851e-30
8.7925e-07 4.4148e-30
8.8336e-07 9.5639e-30
8.875e-07 1.816e-29
8.9165e-07 3.6264e-29
8.9583e-07 4.3433e-28
9.0002e-07 6.8073e-28
9.0423e-07 2.2537e-28
9.0847e-07 6.548e-28
9.1272e-07 6.2087e-28
9.1699e-07 6.1596e-28
9.2129e-07 3.4803e-28
9.256e-07 3.7622e-28
9.2993e-07 1.3959e-27
9.3429e-07 3.4268e-27
9.3866e-07 2.1147e-27
9.4305e-07 1.9708e-27
9.4747e-07 1.973e-27
9.5e-07 2.1486e-27