File: material/gas/smooth_input/h2o_uv_vis_toa_T0_P1.txt
2.8e-07 -0
2.814e-07 -0
2.8282e-07 -0
2.8423e-07 -0
2.8566e-07 -0
2.8709e-07 -0
2.8853e-07 -0
2.8998e-07 -0
2.9143e-07 -0
2.929e-07 -0
2.9437e-07 -0
2.9584e-07 -0
2.9733e-07 -0
2.9882e-07 -0
3.0032e-07 -0
3.0182e-07 -0
3.0334e-07 -0
3.0486e-07 -0
3.0639e-07 -0
3.0792e-07 -0
3.0947e-07 -0
3.1102e-07 -0
3.1258e-07 -0
3.1415e-07 -0
3.1572e-07 -0
3.1731e-07 -0
3.189e-07 -0
3.205e-07 -0
3.2211e-07 -0
3.2372e-07 -0
3.2535e-07 -0
3.2698e-07 -0
3.2862e-07 -0
3.3027e-07 -0
3.3192e-07 -0
3.3359e-07 -0
3.3526e-07 -0
3.3694e-07 -0
3.3863e-07 -0
3.4033e-07 -0
3.4204e-07 -0
3.4375e-07 -0
3.4548e-07 -0
3.4721e-07 -0
3.4895e-07 -0
3.507e-07 -0
3.5246e-07 -0
3.5423e-07 -0
3.5601e-07 -0
3.5779e-07 -0
3.5959e-07 -0
3.6139e-07 -0
3.632e-07 -0
3.6502e-07 -0
3.6686e-07 -0
3.687e-07 -0
3.7054e-07 -0
3.724e-07 -0
3.7427e-07 -0
3.7615e-07 -0
3.7804e-07 -0
3.7993e-07 -0
3.8184e-07 -0
3.8375e-07 -0
3.8568e-07 2.5229e-38
3.8761e-07 6.4983e-36
3.8956e-07 2.7175e-32
3.9151e-07 7.3729e-32
3.9347e-07 4.5871e-32
3.9545e-07 4.8069e-32
3.9743e-07 8.1303e-31
3.9942e-07 4.5754e-31
4.0143e-07 1.6444e-31
4.0344e-07 6.0549e-32
4.0546e-07 2.1334e-32
4.075e-07 5.0749e-33
4.0954e-07 2.162e-35
4.116e-07 2.1079e-33
4.1366e-07 3.1795e-32
4.1574e-07 2.7388e-31
4.1782e-07 2.1549e-31
4.1992e-07 1.2294e-31
4.2202e-07 2.4784e-32
4.2414e-07 2.3032e-33
4.2627e-07 1.4826e-31
4.2841e-07 6.1294e-32
4.3055e-07 2.2817e-32
4.3271e-07 1.9799e-33
4.3488e-07 1.9072e-35
4.3707e-07 5.7041e-35
4.3926e-07 1.3097e-31
4.4146e-07 9.6339e-31
4.4368e-07 1.315e-30
4.459e-07 1.7771e-30
4.4814e-07 4.8684e-31
4.5038e-07 9.0544e-32
4.5264e-07 5.3806e-32
4.5491e-07 6.3678e-32
4.572e-07 6.9128e-32
4.5949e-07 3.3436e-32
4.6179e-07 2.5733e-33
4.6411e-07 9.7226e-33
4.6644e-07 2.0877e-31
4.6878e-07 7.7127e-31
4.7113e-07 8.9609e-31
4.7349e-07 6.4993e-31
4.7587e-07 1.7286e-31
4.7825e-07 2.8473e-32
4.8065e-07 8.7758e-35
4.8306e-07 6.1539e-32
4.8549e-07 1.2652e-30
4.8792e-07 8.7284e-31
4.9037e-07 5.0877e-31
4.9283e-07 2.1616e-31
4.953e-07 3.4741e-32
4.9779e-07 1.0807e-31
5.0028e-07 1.1054e-30
5.0279e-07 5.7552e-30
5.0531e-07 6.7675e-30
5.0785e-07 9.6559e-30
5.104e-07 3.4517e-30
5.1296e-07 8.6693e-31
5.1553e-07 1.9469e-31
5.1811e-07 9.0714e-32
5.2071e-07 4.7104e-32
5.2332e-07 4.5773e-31
5.2595e-07 3.98e-31
5.2859e-07 6.5752e-31
5.3124e-07 5.4681e-31
5.339e-07 1.9479e-31
5.3658e-07 4.5578e-31
5.3927e-07 1.641e-30
5.4198e-07 6.9374e-30
5.447e-07 4.5538e-30
5.4743e-07 3.6762e-30
5.5017e-07 1.9103e-30
5.5293e-07 4.3082e-31
5.5571e-07 1.0731e-31
5.5849e-07 1.674e-31
5.613e-07 3.9214e-31
5.6411e-07 4.1005e-31
5.6694e-07 1.7516e-30
5.6978e-07 1.3529e-29
5.7264e-07 9.5296e-30
5.7551e-07 6.8543e-30
5.784e-07 3.2585e-30
5.813e-07 1.9115e-30
5.8422e-07 3.0251e-30
5.8715e-07 1.3625e-29
5.9009e-07 6.93e-29
5.9305e-07 4.1535e-29
5.9603e-07 3.7147e-29
5.9902e-07 2.2101e-29
6.0202e-07 5.9796e-30
6.0504e-07 1.1208e-30
6.0808e-07 2.6142e-31
6.1113e-07 7.4029e-32
6.1419e-07 3.8896e-32
6.1727e-07 6.0583e-32
6.2037e-07 1.2033e-31
6.2348e-07 2.7222e-31
6.2661e-07 5.1612e-30
6.2975e-07 7.0895e-30
6.3291e-07 7.0961e-30
6.3608e-07 4.8574e-30
6.3927e-07 4.0874e-30
6.4248e-07 4.0425e-30
6.457e-07 1.6752e-29
6.4894e-07 4.9295e-29
6.522e-07 4.6811e-29
6.5547e-07 3.4087e-29
6.5876e-07 1.4883e-29
6.6206e-07 3.2673e-30
6.6538e-07 1.9265e-30
6.6872e-07 6.4591e-31
6.7207e-07 1.3002e-31
6.7544e-07 8.7906e-32
6.7883e-07 4.1421e-31
6.8224e-07 1.7423e-30
6.8566e-07 2.4566e-30
6.891e-07 2.4711e-30
6.9255e-07 5.4666e-29
6.9603e-07 7.9954e-29
6.9952e-07 7.9984e-29
7.0303e-07 6.1713e-29
7.0655e-07 4.0875e-29
7.101e-07 2.8762e-29
7.1366e-07 2.5758e-29
7.1724e-07 2.6327e-28
7.2084e-07 2.4024e-28
7.2445e-07 2.6607e-28
7.2809e-07 2.3234e-28
7.3174e-07 1.8319e-28
7.3541e-07 7.2773e-29
7.391e-07 4.4342e-29
7.428e-07 1.2166e-29
7.4653e-07 2.7959e-30
7.5027e-07 1.3218e-30
7.5404e-07 5.2225e-31
7.5782e-07 4.4788e-31
7.6162e-07 2.0036e-31
7.6544e-07 4.3373e-32
7.6928e-07 3.1628e-32
7.7314e-07 1.3769e-31
7.7702e-07 2.2702e-31
7.8091e-07 7.2502e-31
7.8483e-07 5.9993e-30
7.8877e-07 3.8264e-29
7.9272e-07 3.7322e-29
7.967e-07 5.6431e-29
8.007e-07 5.1656e-29
8.0471e-07 4.1219e-29
8.0875e-07 3.735e-29
8.1281e-07 1.477e-28
8.1688e-07 3.2053e-28
8.2098e-07 1.0983e-28
8.251e-07 1.1221e-28
8.2924e-07 1.8796e-28
8.334e-07 1.3208e-28
8.3758e-07 6.6156e-29
8.4178e-07 3.3817e-29
8.46e-07 1.0041e-29
8.5024e-07 1.0662e-29
8.5451e-07 1.1028e-29
8.5879e-07 3.8578e-30
8.631e-07 1.1455e-30
8.6743e-07 3.3171e-31
8.7178e-07 3.47e-31
8.7615e-07 1.4712e-30
8.8055e-07 4.725e-30
8.8496e-07 7.6028e-30
8.894e-07 1.1393e-29
8.9386e-07 1.0349e-28
8.9835e-07 3.4911e-28
9.0285e-07 2.6204e-28
9.0738e-07 3.4042e-28
9.1193e-07 3.0497e-28
9.1651e-07 3.8445e-28
9.211e-07 1.8912e-28
9.2572e-07 2.3121e-28
9.3037e-07 8.3815e-28
9.3503e-07 1.5347e-27
9.3972e-07 7.051e-28
9.4444e-07 1.1684e-27
9.4918e-07 9.8238e-28
9.5394e-07 8.5201e-28
9.5872e-07 8.3884e-28
9.6353e-07 6.0241e-28
9.6836e-07 2.5908e-28
9.7322e-07 3.0383e-28
9.781e-07 2.4139e-28
9.8301e-07 1.5535e-28
9.8794e-07 5.6986e-29
9.9289e-07 3.6254e-29
9.9787e-07 1.2511e-29
1.0029e-06 2.4518e-29
1.0079e-06 1.6421e-29
1.013e-06 9.201e-30
1.018e-06 7.9495e-30
1.0232e-06 1.542e-29
1.0283e-06 8.6865e-30
1.03e-06 3.612e-30