File: material/gas/smooth_input/h2o_uv_vis_T0_P1.txt
2.8e-07 -0
2.814e-07 -0
2.8282e-07 -0
2.8423e-07 -0
2.8566e-07 -0
2.8709e-07 -0
2.8853e-07 -0
2.8998e-07 -0
2.9143e-07 -0
2.929e-07 -0
2.9437e-07 -0
2.9584e-07 -0
2.9733e-07 -0
2.9882e-07 -0
3.0032e-07 -0
3.0182e-07 -0
3.0334e-07 -0
3.0486e-07 -0
3.0639e-07 -0
3.0792e-07 -0
3.0947e-07 -0
3.1102e-07 -0
3.1258e-07 -0
3.1415e-07 -0
3.1572e-07 -0
3.1731e-07 -0
3.189e-07 -0
3.205e-07 -0
3.2211e-07 -0
3.2372e-07 -0
3.2535e-07 -0
3.2698e-07 -0
3.2862e-07 -0
3.3027e-07 -0
3.3192e-07 -0
3.3359e-07 -0
3.3526e-07 -0
3.3694e-07 -0
3.3863e-07 -0
3.4033e-07 -0
3.4204e-07 -0
3.4375e-07 -0
3.4548e-07 -0
3.4721e-07 -0
3.4895e-07 -0
3.507e-07 -0
3.5246e-07 -0
3.5423e-07 -0
3.5601e-07 -0
3.5779e-07 -0
3.5959e-07 -0
3.6139e-07 -0
3.632e-07 -0
3.6502e-07 -0
3.6686e-07 -0
3.687e-07 -0
3.7054e-07 -0
3.724e-07 -0
3.7427e-07 -0
3.7615e-07 -0
3.7804e-07 -0
3.7993e-07 -0
3.8184e-07 -0
3.8375e-07 -0
3.8568e-07 2.6115e-38
3.8761e-07 6.5087e-36
3.8956e-07 2.6697e-32
3.9151e-07 7.3263e-32
3.9347e-07 4.811e-32
3.9545e-07 4.8493e-32
3.9743e-07 8.461e-31
3.9942e-07 4.5802e-31
4.0143e-07 1.646e-31
4.0344e-07 6.0534e-32
4.0546e-07 2.1304e-32
4.075e-07 5.0679e-33
4.0954e-07 2.0756e-35
4.116e-07 2.1382e-33
4.1366e-07 3.1825e-32
4.1574e-07 2.7374e-31
4.1782e-07 2.1578e-31
4.1992e-07 1.2298e-31
4.2202e-07 2.4736e-32
4.2414e-07 2.3045e-33
4.2627e-07 1.4814e-31
4.2841e-07 6.1383e-32
4.3055e-07 2.2856e-32
4.3271e-07 1.976e-33
4.3488e-07 1.8536e-35
4.3707e-07 5.7653e-35
4.3926e-07 1.309e-31
4.4146e-07 9.5979e-31
4.4368e-07 1.3188e-30
4.459e-07 1.7832e-30
4.4814e-07 4.8754e-31
4.5038e-07 9.0746e-32
4.5264e-07 5.4304e-32
4.5491e-07 6.3739e-32
4.572e-07 6.89e-32
4.5949e-07 3.3423e-32
4.6179e-07 2.577e-33
4.6411e-07 9.7208e-33
4.6644e-07 2.0965e-31
4.6878e-07 7.7164e-31
4.7113e-07 8.9795e-31
4.7349e-07 6.5096e-31
4.7587e-07 1.7283e-31
4.7825e-07 2.8423e-32
4.8065e-07 8.777e-35
4.8306e-07 6.1883e-32
4.8549e-07 1.2571e-30
4.8792e-07 8.7421e-31
4.9037e-07 5.0929e-31
4.9283e-07 2.1655e-31
4.953e-07 3.4708e-32
4.9779e-07 1.0854e-31
5.0028e-07 1.1081e-30
5.0279e-07 5.7771e-30
5.0531e-07 6.8194e-30
5.0785e-07 9.8132e-30
5.104e-07 3.469e-30
5.1296e-07 8.6505e-31
5.1553e-07 1.9453e-31
5.1811e-07 9.0892e-32
5.2071e-07 4.7105e-32
5.2332e-07 4.5419e-31
5.2595e-07 3.9569e-31
5.2859e-07 6.5705e-31
5.3124e-07 5.4677e-31
5.339e-07 1.9485e-31
5.3658e-07 4.569e-31
5.3927e-07 1.6486e-30
5.4198e-07 6.991e-30
5.447e-07 4.5745e-30
5.4743e-07 3.6923e-30
5.5017e-07 1.9127e-30
5.5293e-07 4.3074e-31
5.5571e-07 1.071e-31
5.5849e-07 1.6775e-31
5.613e-07 3.9224e-31
5.6411e-07 4.1052e-31
5.6694e-07 1.7544e-30
5.6978e-07 1.3772e-29
5.7264e-07 9.6718e-30
5.7551e-07 6.9061e-30
5.784e-07 3.2665e-30
5.813e-07 1.9119e-30
5.8422e-07 3.0327e-30
5.8715e-07 1.3807e-29
5.9009e-07 7.3832e-29
5.9305e-07 4.254e-29
5.9603e-07 3.9096e-29
5.9902e-07 2.2617e-29
6.0202e-07 6.0283e-30
6.0504e-07 1.1215e-30
6.0808e-07 2.6131e-31
6.1113e-07 7.4041e-32
6.1419e-07 3.891e-32
6.1727e-07 6.061e-32
6.2037e-07 1.2035e-31
6.2348e-07 2.7267e-31
6.2661e-07 5.1811e-30
6.2975e-07 7.2554e-30
6.3291e-07 7.2223e-30
6.3608e-07 4.8968e-30
6.3927e-07 4.0972e-30
6.4248e-07 4.063e-30
6.457e-07 1.7119e-29
6.4894e-07 5.3058e-29
6.522e-07 5.0912e-29
6.5547e-07 3.6656e-29
6.5876e-07 1.5357e-29
6.6206e-07 3.2888e-30
6.6538e-07 1.9319e-30
6.6872e-07 6.473e-31
6.7207e-07 1.3003e-31
6.7544e-07 8.7891e-32
6.7883e-07 4.1431e-31
6.8224e-07 1.7463e-30
6.8566e-07 2.4631e-30
6.891e-07 2.5292e-30
6.9255e-07 6.08e-29
6.9603e-07 9.7258e-29
6.9952e-07 9.1851e-29
7.0303e-07 7.002e-29
7.0655e-07 4.2757e-29
7.101e-07 2.9223e-29
7.1366e-07 2.6355e-29
7.1724e-07 3.3255e-28
7.2084e-07 3.2283e-28
7.2445e-07 3.6976e-28
7.2809e-07 2.9697e-28
7.3174e-07 2.1545e-28
7.3541e-07 8.0121e-29
7.391e-07 4.7475e-29
7.428e-07 1.2425e-29
7.4653e-07 2.807e-30
7.5027e-07 1.3231e-30
7.5404e-07 5.223e-31
7.5782e-07 4.4842e-31
7.6162e-07 2.1411e-31
7.6544e-07 4.2175e-32
7.6928e-07 3.1496e-32
7.7314e-07 1.373e-31
7.7702e-07 2.2744e-31
7.8091e-07 7.2667e-31
7.8483e-07 6.0589e-30
7.8877e-07 4.1177e-29
7.9272e-07 4.1357e-29
7.967e-07 6.1511e-29
8.007e-07 5.6303e-29
8.0471e-07 4.2604e-29
8.0875e-07 3.8703e-29
8.1281e-07 1.7642e-28
8.1688e-07 4.5583e-28
8.2098e-07 1.3911e-28
8.251e-07 1.4917e-28
8.2924e-07 2.6375e-28
8.334e-07 1.6797e-28
8.3758e-07 7.4716e-29
8.4178e-07 3.5626e-29
8.46e-07 1.0291e-29
8.5024e-07 1.0909e-29
8.5451e-07 1.0807e-29
8.5879e-07 3.895e-30
8.631e-07 1.1464e-30
8.6743e-07 3.3175e-31
8.7178e-07 3.4705e-31
8.7615e-07 1.4764e-30
8.8055e-07 4.8017e-30
8.8496e-07 7.9176e-30
8.894e-07 1.1936e-29
8.9386e-07 1.2657e-28
8.9835e-07 5.2126e-28
9.0285e-07 3.8023e-28
9.0738e-07 4.8323e-28
9.1193e-07 4.1086e-28
9.1651e-07 5.0843e-28
9.211e-07 2.4308e-28
9.2572e-07 2.7715e-28
9.3037e-07 1.1971e-27
9.3503e-07 2.3629e-27
9.3972e-07 9.7577e-28
9.4444e-07 1.7619e-27
9.4918e-07 1.4696e-27
9.5394e-07 1.204e-27
9.5872e-07 1.2213e-27
9.6353e-07 8.6424e-28
9.6836e-07 3.5064e-28
9.7322e-07 4.0647e-28
9.781e-07 3.2133e-28
9.8301e-07 1.9565e-28
9.8794e-07 6.4e-29
9.9289e-07 3.8585e-29
9.9787e-07 1.2906e-29
1.0029e-06 2.6007e-29
1.0079e-06 1.7249e-29
1.013e-06 9.5356e-30
1.018e-06 8.2126e-30
1.0232e-06 1.6219e-29
1.0283e-06 9.0176e-30
1.03e-06 3.6512e-30