File: material/gas/smooth_input/h2o_uv_vis_toa_T0_P0.txt
2.8e-07 -0
2.814e-07 -0
2.8282e-07 -0
2.8423e-07 -0
2.8566e-07 -0
2.8709e-07 -0
2.8853e-07 -0
2.8998e-07 -0
2.9143e-07 -0
2.929e-07 -0
2.9437e-07 -0
2.9584e-07 -0
2.9733e-07 -0
2.9882e-07 -0
3.0032e-07 -0
3.0182e-07 -0
3.0334e-07 -0
3.0486e-07 -0
3.0639e-07 -0
3.0792e-07 -0
3.0947e-07 -0
3.1102e-07 -0
3.1258e-07 -0
3.1415e-07 -0
3.1572e-07 -0
3.1731e-07 -0
3.189e-07 -0
3.205e-07 -0
3.2211e-07 -0
3.2372e-07 -0
3.2535e-07 -0
3.2698e-07 -0
3.2862e-07 -0
3.3027e-07 -0
3.3192e-07 -0
3.3359e-07 -0
3.3526e-07 -0
3.3694e-07 -0
3.3863e-07 -0
3.4033e-07 -0
3.4204e-07 -0
3.4375e-07 -0
3.4548e-07 -0
3.4721e-07 -0
3.4895e-07 -0
3.507e-07 -0
3.5246e-07 -0
3.5423e-07 -0
3.5601e-07 -0
3.5779e-07 -0
3.5959e-07 -0
3.6139e-07 -0
3.632e-07 -0
3.6502e-07 -0
3.6686e-07 -0
3.687e-07 -0
3.7054e-07 -0
3.724e-07 -0
3.7427e-07 -0
3.7615e-07 -0
3.7804e-07 -0
3.7993e-07 -0
3.8184e-07 -0
3.8375e-07 -0
3.8568e-07 2.8015e-38
3.8761e-07 7.2203e-36
3.8956e-07 2.7337e-32
3.9151e-07 7.4035e-32
3.9347e-07 4.6605e-32
3.9545e-07 4.8336e-32
3.9743e-07 8.1187e-31
3.9942e-07 4.5921e-31
4.0143e-07 1.652e-31
4.0344e-07 6.0771e-32
4.0546e-07 2.1431e-32
4.075e-07 5.1022e-33
4.0954e-07 2.4021e-35
4.116e-07 2.1198e-33
4.1366e-07 3.2073e-32
4.1574e-07 2.7312e-31
4.1782e-07 2.1803e-31
4.1992e-07 1.2413e-31
4.2202e-07 2.4856e-32
4.2414e-07 2.3439e-33
4.2627e-07 1.4865e-31
4.2841e-07 6.1646e-32
4.3055e-07 2.2947e-32
4.3271e-07 1.9872e-33
4.3488e-07 2.1172e-35
4.3707e-07 6.3371e-35
4.3926e-07 1.3154e-31
4.4146e-07 9.6775e-31
4.4368e-07 1.3197e-30
4.459e-07 1.7805e-30
4.4814e-07 4.9353e-31
4.5038e-07 9.0909e-32
4.5264e-07 5.4057e-32
4.5491e-07 6.3935e-32
4.572e-07 6.9455e-32
4.5949e-07 3.3588e-32
4.6179e-07 2.5859e-33
4.6411e-07 9.7173e-33
4.6644e-07 2.0975e-31
4.6878e-07 7.7171e-31
4.7113e-07 8.9979e-31
4.7349e-07 6.5328e-31
4.7587e-07 1.7377e-31
4.7825e-07 2.6733e-32
4.8065e-07 9.7501e-35
4.8306e-07 6.1884e-32
4.8549e-07 1.2704e-30
4.8792e-07 8.7541e-31
4.9037e-07 5.1089e-31
4.9283e-07 2.1901e-31
4.953e-07 3.483e-32
4.9779e-07 1.0845e-31
5.0028e-07 1.1108e-30
5.0279e-07 5.755e-30
5.0531e-07 6.789e-30
5.0785e-07 9.6855e-30
5.104e-07 3.4613e-30
5.1296e-07 8.7176e-31
5.1553e-07 1.9482e-31
5.1811e-07 9.0679e-32
5.2071e-07 4.719e-32
5.2332e-07 4.5878e-31
5.2595e-07 4.0057e-31
5.2859e-07 6.6194e-31
5.3124e-07 5.543e-31
5.339e-07 1.9469e-31
5.3658e-07 4.4942e-31
5.3927e-07 1.6492e-30
5.4198e-07 6.9635e-30
5.447e-07 4.5749e-30
5.4743e-07 3.6917e-30
5.5017e-07 1.9204e-30
5.5293e-07 4.3224e-31
5.5571e-07 1.0759e-31
5.5849e-07 1.6775e-31
5.613e-07 3.9351e-31
5.6411e-07 4.1195e-31
5.6694e-07 1.7637e-30
5.6978e-07 1.3584e-29
5.7264e-07 9.5713e-30
5.7551e-07 6.895e-30
5.784e-07 3.2741e-30
5.813e-07 1.9243e-30
5.8422e-07 3.0393e-30
5.8715e-07 1.3526e-29
5.9009e-07 6.9396e-29
5.9305e-07 4.1467e-29
5.9603e-07 3.7179e-29
5.9902e-07 2.2177e-29
6.0202e-07 6.0074e-30
6.0504e-07 1.1252e-30
6.0808e-07 2.619e-31
6.1113e-07 7.4259e-32
6.1419e-07 3.8979e-32
6.1727e-07 6.0695e-32
6.2037e-07 1.2097e-31
6.2348e-07 2.7328e-31
6.2661e-07 5.1928e-30
6.2975e-07 7.1397e-30
6.3291e-07 7.1182e-30
6.3608e-07 4.8948e-30
6.3927e-07 4.0945e-30
6.4248e-07 4.0552e-30
6.457e-07 1.6837e-29
6.4894e-07 4.9389e-29
6.522e-07 4.6797e-29
6.5547e-07 3.4184e-29
6.5876e-07 1.4929e-29
6.6206e-07 3.2853e-30
6.6538e-07 1.9339e-30
6.6872e-07 6.4968e-31
6.7207e-07 1.3068e-31
6.7544e-07 8.8247e-32
6.7883e-07 4.1645e-31
6.8224e-07 1.7511e-30
6.8566e-07 2.4647e-30
6.891e-07 2.4596e-30
6.9255e-07 5.4644e-29
6.9603e-07 7.9977e-29
6.9952e-07 8.0243e-29
7.0303e-07 6.1775e-29
7.0655e-07 4.1114e-29
7.101e-07 2.8785e-29
7.1366e-07 2.5963e-29
7.1724e-07 2.6283e-28
7.2084e-07 2.4072e-28
7.2445e-07 2.6626e-28
7.2809e-07 2.3245e-28
7.3174e-07 1.8277e-28
7.3541e-07 7.2785e-29
7.391e-07 4.4432e-29
7.428e-07 1.218e-29
7.4653e-07 2.8047e-30
7.5027e-07 1.3249e-30
7.5404e-07 5.2091e-31
7.5782e-07 4.4765e-31
7.6162e-07 1.9827e-31
7.6544e-07 4.3846e-32
7.6928e-07 3.1683e-32
7.7314e-07 1.3801e-31
7.7702e-07 2.2827e-31
7.8091e-07 7.2982e-31
7.8483e-07 6.0123e-30
7.8877e-07 3.8352e-29
7.9272e-07 3.7341e-29
7.967e-07 5.6437e-29
8.007e-07 5.1576e-29
8.0471e-07 4.1259e-29
8.0875e-07 3.7358e-29
8.1281e-07 1.475e-28
8.1688e-07 3.2013e-28
8.2098e-07 1.1028e-28
8.251e-07 1.1252e-28
8.2924e-07 1.8813e-28
8.334e-07 1.32e-28
8.3758e-07 6.6082e-29
8.4178e-07 3.3813e-29
8.46e-07 1.0033e-29
8.5024e-07 1.0668e-29
8.5451e-07 1.1019e-29
8.5879e-07 3.8603e-30
8.631e-07 1.1524e-30
8.6743e-07 3.3273e-31
8.7178e-07 3.4794e-31
8.7615e-07 1.4699e-30
8.8055e-07 4.723e-30
8.8496e-07 7.6098e-30
8.894e-07 1.1419e-29
8.9386e-07 1.0346e-28
8.9835e-07 3.4649e-28
9.0285e-07 2.6377e-28
9.0738e-07 3.4212e-28
9.1193e-07 3.0412e-28
9.1651e-07 3.8217e-28
9.211e-07 1.8904e-28
9.2572e-07 2.3256e-28
9.3037e-07 8.4275e-28
9.3503e-07 1.5324e-27
9.3972e-07 7.1078e-28
9.4444e-07 1.1655e-27
9.4918e-07 9.8087e-28
9.5394e-07 8.6195e-28
9.5872e-07 8.351e-28
9.6353e-07 5.9737e-28
9.6836e-07 2.5821e-28
9.7322e-07 3.0367e-28
9.781e-07 2.4283e-28
9.8301e-07 1.5589e-28
9.8794e-07 5.6927e-29
9.9289e-07 3.6236e-29
9.9787e-07 1.2522e-29
1.0029e-06 2.446e-29
1.0079e-06 1.6489e-29
1.013e-06 9.2066e-30
1.018e-06 7.9544e-30
1.0232e-06 1.5421e-29
1.0283e-06 8.6964e-30
1.03e-06 3.6832e-30