File: material/gas/smooth_input/h2o_uv_vis_toa_T1_P0.txt
2.8e-07 -0
2.814e-07 -0
2.8282e-07 -0
2.8423e-07 -0
2.8566e-07 -0
2.8709e-07 -0
2.8853e-07 -0
2.8998e-07 -0
2.9143e-07 -0
2.929e-07 -0
2.9437e-07 -0
2.9584e-07 -0
2.9733e-07 -0
2.9882e-07 -0
3.0032e-07 -0
3.0182e-07 -0
3.0334e-07 -0
3.0486e-07 -0
3.0639e-07 -0
3.0792e-07 -0
3.0947e-07 -0
3.1102e-07 -0
3.1258e-07 -0
3.1415e-07 -0
3.1572e-07 -0
3.1731e-07 -0
3.189e-07 -0
3.205e-07 -0
3.2211e-07 -0
3.2372e-07 -0
3.2535e-07 -0
3.2698e-07 -0
3.2862e-07 -0
3.3027e-07 -0
3.3192e-07 -0
3.3359e-07 -0
3.3526e-07 -0
3.3694e-07 -0
3.3863e-07 -0
3.4033e-07 -0
3.4204e-07 -0
3.4375e-07 -0
3.4548e-07 -0
3.4721e-07 -0
3.4895e-07 -0
3.507e-07 -0
3.5246e-07 -0
3.5423e-07 -0
3.5601e-07 -0
3.5779e-07 -0
3.5959e-07 -0
3.6139e-07 -0
3.632e-07 -0
3.6502e-07 -0
3.6686e-07 -0
3.687e-07 -0
3.7054e-07 -0
3.724e-07 -0
3.7427e-07 -0
3.7615e-07 -0
3.7804e-07 -0
3.7993e-07 -0
3.8184e-07 -0
3.8375e-07 -0
3.8568e-07 4.2585e-38
3.8761e-07 1.0924e-35
3.8956e-07 3.7356e-32
3.9151e-07 1.0123e-31
3.9347e-07 6.3556e-32
3.9545e-07 6.544e-32
3.9743e-07 1.092e-30
3.9942e-07 6.1834e-31
4.0143e-07 2.2241e-31
4.0344e-07 8.2131e-32
4.0546e-07 2.9045e-32
4.075e-07 6.9235e-33
4.0954e-07 3.5485e-35
4.116e-07 2.1252e-33
4.1366e-07 4.3572e-32
4.1574e-07 3.6708e-31
4.1782e-07 2.9463e-31
4.1992e-07 1.6726e-31
4.2202e-07 3.3005e-32
4.2414e-07 3.1871e-33
4.2627e-07 1.9998e-31
4.2841e-07 8.352e-32
4.3055e-07 3.1047e-32
4.3271e-07 2.6948e-33
4.3488e-07 3.1381e-35
4.3707e-07 9.3567e-35
4.3926e-07 1.7744e-31
4.4146e-07 1.3005e-30
4.4368e-07 1.7774e-30
4.459e-07 2.3978e-30
4.4814e-07 6.6443e-31
4.5038e-07 1.2278e-31
4.5264e-07 7.3313e-32
4.5491e-07 8.7115e-32
4.572e-07 9.3883e-32
4.5949e-07 4.5675e-32
4.6179e-07 3.5361e-33
4.6411e-07 1.3226e-32
4.6644e-07 2.8332e-31
4.6878e-07 1.0395e-30
4.7113e-07 1.213e-30
4.7349e-07 8.8164e-31
4.7587e-07 2.3537e-31
4.7825e-07 3.679e-32
4.8065e-07 1.4478e-34
4.8306e-07 8.4364e-32
4.8549e-07 1.7097e-30
4.8792e-07 1.1759e-30
4.9037e-07 6.9031e-31
4.9283e-07 2.971e-31
4.953e-07 4.7704e-32
4.9779e-07 1.4739e-31
5.0028e-07 1.4977e-30
5.0279e-07 7.7371e-30
5.0531e-07 9.1311e-30
5.0785e-07 1.3016e-29
5.104e-07 4.6478e-30
5.1296e-07 1.1773e-30
5.1553e-07 2.6677e-31
5.1811e-07 1.249e-31
5.2071e-07 6.5201e-32
5.2332e-07 6.0825e-31
5.2595e-07 5.4606e-31
5.2859e-07 9.0137e-31
5.3124e-07 7.546e-31
5.339e-07 2.6711e-31
5.3658e-07 6.138e-31
5.3927e-07 2.2295e-30
5.4198e-07 9.3787e-30
5.447e-07 6.1708e-30
5.4743e-07 4.9624e-30
5.5017e-07 2.5964e-30
5.5293e-07 5.8846e-31
5.5571e-07 1.4847e-31
5.5849e-07 2.3061e-31
5.613e-07 5.38e-31
5.6411e-07 5.6464e-31
5.6694e-07 2.3885e-30
5.6978e-07 1.8243e-29
5.7264e-07 1.2886e-29
5.7551e-07 9.2947e-30
5.784e-07 4.4234e-30
5.813e-07 2.6132e-30
5.8422e-07 4.1117e-30
5.8715e-07 1.8195e-29
5.9009e-07 9.2255e-29
5.9305e-07 5.4826e-29
5.9603e-07 4.9396e-29
5.9902e-07 2.9723e-29
6.0202e-07 8.0851e-30
6.0504e-07 1.5307e-30
6.0808e-07 3.6062e-31
6.1113e-07 1.0263e-31
6.1419e-07 5.4333e-32
6.1727e-07 8.4652e-32
6.2037e-07 1.6856e-31
6.2348e-07 3.7837e-31
6.2661e-07 7.0448e-30
6.2975e-07 9.7061e-30
6.3291e-07 9.641e-30
6.3608e-07 6.6651e-30
6.3927e-07 5.5648e-30
6.4248e-07 5.5192e-30
6.457e-07 2.2772e-29
6.4894e-07 6.5872e-29
6.522e-07 6.1898e-29
6.5547e-07 4.5502e-29
6.5876e-07 2.0163e-29
6.6206e-07 4.4793e-30
6.6538e-07 2.6493e-30
6.6872e-07 8.9606e-31
6.7207e-07 1.8324e-31
6.7544e-07 1.2479e-31
6.7883e-07 5.7979e-31
6.8224e-07 2.4093e-30
6.8566e-07 3.3853e-30
6.891e-07 3.3571e-30
6.9255e-07 7.2716e-29
6.9603e-07 1.0325e-28
6.9952e-07 1.0595e-28
7.0303e-07 8.0974e-29
7.0655e-07 5.5894e-29
7.101e-07 3.9541e-29
7.1366e-07 3.5708e-29
7.1724e-07 3.3265e-28
7.2084e-07 3.0739e-28
7.2445e-07 3.3759e-28
7.2809e-07 2.9933e-28
7.3174e-07 2.3304e-28
7.3541e-07 9.7171e-29
7.391e-07 6.0019e-29
7.428e-07 1.6762e-29
7.4653e-07 3.9044e-30
7.5027e-07 1.8531e-30
7.5404e-07 7.2858e-31
7.5782e-07 6.2522e-31
7.6162e-07 2.7331e-31
7.6544e-07 6.1916e-32
7.6928e-07 4.3998e-32
7.7314e-07 1.9591e-31
7.7702e-07 3.3545e-31
7.8091e-07 1.0385e-30
7.8483e-07 8.3945e-30
7.8877e-07 5.2003e-29
7.9272e-07 5.0084e-29
7.967e-07 7.591e-29
8.007e-07 6.9294e-29
8.0471e-07 5.62e-29
8.0875e-07 5.1285e-29
8.1281e-07 1.9197e-28
8.1688e-07 4.001e-28
8.2098e-07 1.425e-28
8.251e-07 1.4498e-28
8.2924e-07 2.3729e-28
8.334e-07 1.7018e-28
8.3758e-07 8.7527e-29
8.4178e-07 4.6014e-29
8.46e-07 1.3854e-29
8.5024e-07 1.4748e-29
8.5451e-07 1.5163e-29
8.5879e-07 5.3696e-30
8.631e-07 1.6116e-30
8.6743e-07 4.6329e-31
8.7178e-07 4.8567e-31
8.7615e-07 2.0455e-30
8.8055e-07 6.5459e-30
8.8496e-07 1.0492e-29
8.894e-07 1.5684e-29
8.9386e-07 1.335e-28
8.9835e-07 4.2545e-28
9.0285e-07 3.3615e-28
9.0738e-07 4.3365e-28
9.1193e-07 3.8454e-28
9.1651e-07 4.8601e-28
9.211e-07 2.4335e-28
9.2572e-07 3.0648e-28
9.3037e-07 1.0656e-27
9.3503e-07 1.9134e-27
9.3972e-07 9.1239e-28
9.4444e-07 1.4418e-27
9.4918e-07 1.225e-27
9.5394e-07 1.1043e-27
9.5872e-07 1.0376e-27
9.6353e-07 7.407e-28
9.6836e-07 3.2575e-28
9.7322e-07 3.8785e-28
9.781e-07 3.1264e-28
9.8301e-07 2.0132e-28
9.8794e-07 7.5538e-29
9.9289e-07 4.9256e-29
9.9787e-07 1.7296e-29
1.0029e-06 3.3288e-29
1.0079e-06 2.27e-29
1.013e-06 1.2729e-29
1.018e-06 1.1004e-29
1.0232e-06 2.118e-29
1.0283e-06 1.1982e-29
1.03e-06 5.1884e-30