File: material/gas/smooth_input/h2o_uv_vis_T0_P0.txt
2.8e-07 -0
2.8141e-07 -0
2.8282e-07 -0
2.8424e-07 -0
2.8567e-07 -0
2.8711e-07 -0
2.8855e-07 -0
2.9e-07 -0
2.9145e-07 -0
2.9292e-07 -0
2.9439e-07 -0
2.9587e-07 -0
2.9736e-07 -0
2.9885e-07 -0
3.0035e-07 -0
3.0186e-07 -0
3.0338e-07 -0
3.049e-07 -0
3.0643e-07 -0
3.0797e-07 -0
3.0952e-07 -0
3.1108e-07 -0
3.1264e-07 -0
3.1421e-07 -0
3.1579e-07 -0
3.1738e-07 -0
3.1897e-07 -0
3.2057e-07 -0
3.2218e-07 -0
3.238e-07 -0
3.2543e-07 -0
3.2707e-07 -0
3.2871e-07 -0
3.3036e-07 -0
3.3202e-07 -0
3.3369e-07 -0
3.3537e-07 -0
3.3705e-07 -0
3.3874e-07 -0
3.4045e-07 -0
3.4216e-07 -0
3.4388e-07 -0
3.456e-07 -0
3.4734e-07 -0
3.4909e-07 -0
3.5084e-07 -0
3.526e-07 -0
3.5437e-07 -0
3.5615e-07 -0
3.5794e-07 -0
3.5974e-07 -0
3.6155e-07 -0
3.6337e-07 -0
3.6519e-07 -0
3.6703e-07 -0
3.6887e-07 -0
3.7073e-07 -0
3.7259e-07 -0
3.7446e-07 -0
3.7634e-07 -0
3.7823e-07 -0
3.8013e-07 -0
3.8204e-07 -0
3.8396e-07 -0
3.8589e-07 2.3589e-37
3.8783e-07 6.0055e-35
3.8978e-07 4.7065e-32
3.9174e-07 7.3593e-32
3.9371e-07 3.699e-32
3.9568e-07 1.0203e-31
3.9767e-07 5.8815e-31
3.9967e-07 4.3299e-31
4.0168e-07 1.5962e-31
4.037e-07 5.7857e-32
4.0573e-07 1.6529e-32
4.0776e-07 5.4713e-33
4.0981e-07 2.4755e-34
4.1187e-07 9.9034e-33
4.1394e-07 5.1881e-32
4.1602e-07 3.7787e-31
4.1811e-07 2.3488e-31
4.2021e-07 1.0301e-31
4.2232e-07 1.9864e-32
4.2445e-07 2.0772e-32
4.2658e-07 1.0091e-31
4.2872e-07 6.5618e-32
4.3088e-07 1.5928e-32
4.3304e-07 1.3969e-33
4.3522e-07 2.5921e-33
4.374e-07 5.6e-33
4.396e-07 1.6534e-31
4.4181e-07 1.4518e-30
4.4403e-07 1.6732e-30
4.4626e-07 1.4275e-30
4.485e-07 4.2927e-31
4.5076e-07 7.0087e-32
4.5302e-07 5.3569e-32
4.553e-07 6.0934e-32
4.5759e-07 5.7612e-32
4.5989e-07 2.9747e-32
4.622e-07 4.1334e-33
4.6452e-07 9.7459e-33
4.6685e-07 3.9323e-31
4.692e-07 1.0233e-30
4.7156e-07 7.7733e-31
4.7393e-07 5.2205e-31
4.7631e-07 1.4256e-31
4.787e-07 1.9386e-32
4.8111e-07 3.0491e-33
4.8352e-07 2.0816e-31
4.8595e-07 9.664e-31
4.8839e-07 8.5795e-31
4.9085e-07 4.6357e-31
4.9331e-07 1.5811e-31
4.9579e-07 3.0643e-32
4.9828e-07 2.6582e-31
5.0079e-07 1.7634e-30
5.033e-07 1.1348e-29
5.0583e-07 8.9419e-30
5.0837e-07 7.9791e-30
5.1093e-07 2.8026e-30
5.135e-07 6.3586e-31
5.1608e-07 1.6491e-31
5.1867e-07 8.2859e-32
5.2127e-07 5.9604e-32
5.2389e-07 9.8204e-31
5.2653e-07 7.2838e-31
5.2917e-07 6.9851e-31
5.3183e-07 4.6702e-31
5.345e-07 2.2151e-31
5.3719e-07 5.7571e-31
5.3989e-07 3.2407e-30
5.426e-07 6.0052e-30
5.4533e-07 5.7067e-30
5.4807e-07 3.139e-30
5.5082e-07 1.4669e-30
5.5359e-07 3.2451e-31
5.5637e-07 7.2761e-32
5.5917e-07 2.2289e-31
5.6198e-07 4.3891e-31
5.648e-07 4.7103e-31
5.6764e-07 5.6972e-30
5.7049e-07 9.1821e-30
5.7336e-07 8.9391e-30
5.7624e-07 6.4304e-30
5.7913e-07 2.723e-30
5.8204e-07 2.1587e-30
5.8497e-07 3.9899e-30
5.8791e-07 3.6947e-29
5.9086e-07 6.3846e-29
5.9383e-07 5.4651e-29
5.9681e-07 3.8096e-29
5.9981e-07 1.656e-29
6.0282e-07 4.1242e-30
6.0585e-07 8.1622e-31
6.089e-07 1.955e-31
6.1196e-07 6.2469e-32
6.1503e-07 4.5637e-32
6.1812e-07 8.5273e-32
6.2123e-07 1.3747e-31
6.2435e-07 6.404e-31
6.2749e-07 8.9529e-30
6.3064e-07 5.4401e-30
6.3381e-07 6.189e-30
6.3699e-07 4.6955e-30
6.4019e-07 4.0515e-30
6.4341e-07 5.4664e-30
6.4664e-07 3.8139e-29
6.4989e-07 3.6981e-29
6.5316e-07 3.1647e-29
6.5644e-07 3.0072e-29
6.5974e-07 1.0478e-29
6.6305e-07 3.0988e-30
6.6638e-07 1.5546e-30
6.6973e-07 3.9674e-31
6.731e-07 9.9485e-32
6.7648e-07 1.711e-31
6.7988e-07 6.8328e-31
6.8329e-07 2.002e-30
6.8673e-07 3.1836e-30
6.9018e-07 6.3499e-30
6.9365e-07 1.0547e-28
6.9713e-07 5.3111e-29
7.0063e-07 8.5969e-29
7.0415e-07 5.6722e-29
7.0769e-07 3.6327e-29
7.1125e-07 2.4536e-29
7.1482e-07 4.8249e-29
7.1841e-07 4.3202e-28
7.2202e-07 1.9832e-28
7.2565e-07 3.3087e-28
7.293e-07 2.8339e-28
7.3296e-07 1.2536e-28
7.3664e-07 7.4964e-29
7.4035e-07 3.181e-29
7.4407e-07 7.0859e-30
7.478e-07 2.0099e-30
7.5156e-07 9.6745e-31
7.5534e-07 3.9136e-31
7.5913e-07 3.8258e-31
7.6295e-07 1.1833e-31
7.6678e-07 3.0901e-32
7.7063e-07 5.6884e-32
7.7451e-07 1.8665e-31
7.784e-07 4.0719e-31
7.8231e-07 1.5049e-30
7.8624e-07 1.5556e-29
7.9019e-07 5.0275e-29
7.9416e-07 2.5423e-29
7.9815e-07 4.0234e-29
8.0216e-07 5.4094e-29
8.0619e-07 2.9244e-29
8.1024e-07 6.5408e-29
8.1431e-07 3.2057e-28
8.1841e-07 3.7569e-28
8.2252e-07 3.4995e-28
8.2665e-07 1.9718e-28
8.308e-07 2.23e-28
8.3498e-07 1.1471e-28
8.3917e-07 4.9184e-29
8.4339e-07 2.3653e-29
8.4763e-07 9.4484e-30
8.5189e-07 1.3831e-29
8.5617e-07 7.5837e-30
8.6047e-07 2.4623e-30
8.6479e-07 6.305e-31
8.6914e-07 3.214e-31
8.735e-07 6.4659e-31
8.7789e-07 2.7962e-30
8.823e-07 6.621e-30
8.8674e-07 1.3123e-29
8.9119e-07 2.9411e-29
8.9567e-07 3.0663e-28
9.0017e-07 5.3922e-28
9.0469e-07 2.3215e-28
9.0924e-07 4.9166e-28
9.1381e-07 5.3732e-28
9.184e-07 4.153e-28
9.2301e-07 2.6438e-28
9.2765e-07 5.2067e-28
9.3231e-07 1.9299e-27
9.37e-07 2.0793e-27
9.4171e-07 1.2614e-27
9.4644e-07 1.6279e-27
9.5119e-07 1.4097e-27
9.5597e-07 1.2915e-27
9.6078e-07 1.0992e-27
9.656e-07 7.494e-28
9.7046e-07 2.8342e-28
9.7533e-07 4.5157e-28
9.8023e-07 2.9821e-28
9.8516e-07 1.2471e-28
9.9011e-07 4.6159e-29
9.9508e-07 1.7422e-29
1.0001e-06 1.9141e-29
1.0051e-06 1.6683e-29
1.0102e-06 2.1165e-29
1.0152e-06 8.7141e-30
1.0203e-06 9.8311e-30
1.0255e-06 1.0417e-29
1.0306e-06 4.2541e-30
1.0358e-06 1.2208e-30
1.041e-06 9.384e-31
1.0462e-06 4.5451e-31
1.0515e-06 5.7187e-31
1.0568e-06 8.4824e-31
1.0621e-06 2.6756e-30
1.0674e-06 8.1229e-30
1.0728e-06 1.9462e-29
1.0782e-06 3.9254e-29
1.0836e-06 6.9359e-29
1.089e-06 8.599e-29
1.0945e-06 1.5584e-28
1.1e-06 3.1029e-28