File: material/gas/smooth_input/no2_uv_vis_toa_T0_P0.txt
2.8e-07 5.6433e-24
2.814e-07 6.2e-24
2.8282e-07 5.9098e-24
2.8423e-07 7.1417e-24
2.8566e-07 7.9183e-24
2.8709e-07 7.7962e-24
2.8853e-07 8.1947e-24
2.8998e-07 9.2886e-24
2.9143e-07 1.0467e-23
2.929e-07 1.0581e-23
2.9437e-07 1.0822e-23
2.9584e-07 1.0827e-23
2.9733e-07 1.4607e-23
2.9882e-07 1.3304e-23
3.0032e-07 1.3369e-23
3.0182e-07 1.4758e-23
3.0334e-07 1.6883e-23
3.0486e-07 1.7317e-23
3.0639e-07 1.714e-23
3.0792e-07 1.787e-23
3.0947e-07 2.0608e-23
3.1102e-07 2.0873e-23
3.1258e-07 2.2723e-23
3.1415e-07 2.1822e-23
3.1572e-07 2.3377e-23
3.1731e-07 2.5646e-23
3.189e-07 2.5681e-23
3.205e-07 2.8157e-23
3.2211e-07 2.813e-23
3.2372e-07 2.9196e-23
3.2535e-07 3.2194e-23
3.2698e-07 3.1847e-23
3.2862e-07 3.2322e-23
3.3027e-07 3.4197e-23
3.3192e-07 3.4574e-23
3.3359e-07 3.842e-23
3.3526e-07 3.8725e-23
3.3694e-07 3.9218e-23
3.3863e-07 4.3423e-23
3.4033e-07 4.2658e-23
3.4204e-07 4.3047e-23
3.4375e-07 4.2564e-23
3.4548e-07 4.4158e-23
3.4721e-07 4.7092e-23
3.4895e-07 5.0673e-23
3.507e-07 4.717e-23
3.5246e-07 4.6773e-23
3.5423e-07 5.4554e-23
3.5601e-07 4.7705e-23
3.5779e-07 5.5494e-23
3.5959e-07 4.8025e-23
3.6139e-07 5.405e-23
3.632e-07 5.3021e-23
3.6502e-07 6.0195e-23
3.6686e-07 5.3655e-23
3.687e-07 5.5046e-23
3.7054e-07 5.5242e-23
3.724e-07 6.2992e-23
3.7427e-07 5.5889e-23
3.7615e-07 6.6117e-23
3.7804e-07 5.4787e-23
3.7993e-07 6.539e-23
3.8184e-07 6.0616e-23
3.8375e-07 6.0607e-23
3.8568e-07 6.2391e-23
3.8761e-07 6.2754e-23
3.8956e-07 6.3648e-23
3.9151e-07 6.5006e-23
3.9347e-07 5.78e-23
3.9545e-07 6.4914e-23
3.9743e-07 6.0194e-23
3.9942e-07 6.1475e-23
4.0143e-07 6.5763e-23
4.0344e-07 5.7456e-23
4.0546e-07 6.4576e-23
4.075e-07 5.4744e-23
4.0954e-07 6.407e-23
4.116e-07 5.6185e-23
4.1366e-07 7.2287e-23
4.1574e-07 5.2534e-23
4.1782e-07 5.7431e-23
4.1992e-07 6.2221e-23
4.2202e-07 6.3492e-23
4.2414e-07 6.5658e-23
4.2627e-07 4.7376e-23
4.2841e-07 5.9448e-23
4.3055e-07 5.9566e-23
4.3271e-07 4.8203e-23
4.3488e-07 6.7504e-23
4.3707e-07 4.7653e-23
4.3926e-07 6.8709e-23
4.4146e-07 4.0828e-23
4.4368e-07 4.7763e-23
4.459e-07 5.0719e-23
4.4814e-07 6.9061e-23
4.5038e-07 4.6098e-23
4.5264e-07 4.7628e-23
4.5491e-07 4.5715e-23
4.572e-07 4.3068e-23
4.5949e-07 4.3379e-23
4.6179e-07 4.0132e-23
4.6411e-07 4.6779e-23
4.6644e-07 3.7592e-23
4.6878e-07 3.5753e-23
4.7113e-07 3.2885e-23
4.7349e-07 4.3884e-23
4.7587e-07 3.8479e-23
4.7825e-07 3.2895e-23
4.8065e-07 3.6244e-23
4.8306e-07 2.5457e-23
4.8549e-07 2.8632e-23
4.8792e-07 3.3143e-23
4.9037e-07 3.0833e-23
4.9283e-07 2.6856e-23
4.953e-07 3.2849e-23
4.9779e-07 2.2474e-23
5.0028e-07 1.6795e-23
5.0279e-07 2.7396e-23
5.0531e-07 2.8923e-23
5.0785e-07 2.0586e-23
5.104e-07 2.6123e-23
5.1296e-07 2.2067e-23
5.1553e-07 1.5699e-23
5.1811e-07 1.7472e-23
5.2071e-07 1.6854e-23
5.2332e-07 1.5224e-23
5.2595e-07 2.2589e-23
5.2859e-07 1.661e-23
5.3124e-07 1.585e-23
5.339e-07 1.3259e-23
5.3658e-07 9.0605e-24
5.3927e-07 1.2535e-23
5.4198e-07 1.3857e-23
5.447e-07 1.4105e-23
5.4743e-07 1.3326e-23
5.5017e-07 1.111e-23
5.5293e-07 1.1436e-23
5.5571e-07 6.7311e-24
5.5849e-07 6.4226e-24
5.613e-07 7.0351e-24
5.6411e-07 1.2119e-23
5.6694e-07 6.2702e-24
5.6978e-07 8.2248e-24
5.7264e-07 8.4099e-24
5.7551e-07 4.3069e-24
5.784e-07 5.0049e-24
5.813e-07 4.0261e-24
5.8422e-07 4.669e-24
5.8715e-07 5.0282e-24
5.9009e-07 6.1439e-24
5.9305e-07 7.3284e-24
5.9603e-07 3.0577e-24
5.9902e-07 4.0972e-24
6.0202e-07 3.9826e-24
6.0504e-07 1.8354e-24
6.0808e-07 2.0691e-24
6.1113e-07 3.1496e-24
6.1419e-07 3.3868e-24
6.1727e-07 3.8418e-24
6.2037e-07 3.2603e-24
6.2348e-07 2.3723e-24
6.2661e-07 1.775e-24
6.2975e-07 1.1595e-24
6.3291e-07 1.302e-24
6.3608e-07 1.4999e-24
6.3927e-07 1.4426e-24
6.4248e-07 2.1923e-24
6.457e-07 1.9198e-24
6.4894e-07 1.2896e-24
6.522e-07 1.1965e-24
6.5547e-07 1.0071e-24
6.5876e-07 7.1554e-25
6.6206e-07 4.1923e-25
6.6538e-07 6.2773e-25
6.6872e-07 -0
6.7207e-07 -0
6.7544e-07 -0
6.7883e-07 -0
6.8224e-07 -0
6.8566e-07 -0
6.891e-07 -0
6.9255e-07 -0
6.9603e-07 -0
6.9952e-07 -0
7.0303e-07 -0
7.0655e-07 -0
7.101e-07 -0
7.1366e-07 -0
7.1724e-07 -0
7.2084e-07 -0
7.2445e-07 -0
7.2809e-07 -0
7.3174e-07 -0
7.3541e-07 -0
7.391e-07 -0
7.428e-07 -0
7.4653e-07 -0
7.5027e-07 -0
7.5404e-07 -0
7.5782e-07 -0
7.6162e-07 -0
7.6544e-07 -0
7.6928e-07 -0
7.7314e-07 -0
7.7702e-07 -0
7.8091e-07 -0
7.8483e-07 -0
7.8877e-07 -0
7.9272e-07 -0
7.967e-07 -0
8.007e-07 -0
8.0471e-07 -0
8.0875e-07 -0
8.1281e-07 -0
8.1688e-07 -0
8.2098e-07 -0
8.251e-07 -0
8.2924e-07 -0
8.334e-07 -0
8.3758e-07 -0
8.4178e-07 -0
8.46e-07 -0
8.5024e-07 -0
8.5451e-07 -0
8.5879e-07 -0
8.631e-07 -0
8.6743e-07 -0
8.7178e-07 -0
8.7615e-07 -0
8.8055e-07 -0
8.8496e-07 -0
8.894e-07 -0
8.9386e-07 -0
8.9835e-07 -0
9.0285e-07 -0
9.0738e-07 -0
9.1193e-07 -0
9.1651e-07 -0
9.211e-07 -0
9.2572e-07 -0
9.3037e-07 -0
9.3503e-07 -0
9.3972e-07 -0
9.4444e-07 -0
9.4918e-07 -0
9.5394e-07 -0
9.5872e-07 -0
9.6353e-07 -0
9.6836e-07 -0
9.7322e-07 -0
9.781e-07 -0
9.8301e-07 -0
9.8794e-07 -0
9.9289e-07 -0
9.9787e-07 -0
1.0029e-06 -0
1.0079e-06 -0
1.013e-06 -0
1.018e-06 -0
1.0232e-06 -0
1.0283e-06 -0
1.03e-06 -0