File: material/gas/smooth_input/no2_uv_vis_toa_T1_P0.txt
2.8e-07 5.6421e-24
2.814e-07 6.2003e-24
2.8282e-07 5.9025e-24
2.8423e-07 7.1385e-24
2.8566e-07 7.9117e-24
2.8709e-07 7.7971e-24
2.8853e-07 8.1918e-24
2.8998e-07 9.2866e-24
2.9143e-07 1.0467e-23
2.929e-07 1.0578e-23
2.9437e-07 1.0816e-23
2.9584e-07 1.0824e-23
2.9733e-07 1.4605e-23
2.9882e-07 1.3303e-23
3.0032e-07 1.3368e-23
3.0182e-07 1.475e-23
3.0334e-07 1.6879e-23
3.0486e-07 1.7313e-23
3.0639e-07 1.7135e-23
3.0792e-07 1.7868e-23
3.0947e-07 2.0602e-23
3.1102e-07 2.0866e-23
3.1258e-07 2.2715e-23
3.1415e-07 2.1832e-23
3.1572e-07 2.3367e-23
3.1731e-07 2.563e-23
3.189e-07 2.5665e-23
3.205e-07 2.814e-23
3.2211e-07 2.8111e-23
3.2372e-07 2.9168e-23
3.2535e-07 3.2175e-23
3.2698e-07 3.1808e-23
3.2862e-07 3.2291e-23
3.3027e-07 3.4154e-23
3.3192e-07 3.4525e-23
3.3359e-07 3.837e-23
3.3526e-07 3.8608e-23
3.3694e-07 3.9151e-23
3.3863e-07 4.3263e-23
3.4033e-07 4.2575e-23
3.4204e-07 4.2761e-23
3.4375e-07 4.2438e-23
3.4548e-07 4.3902e-23
3.4721e-07 4.6892e-23
3.4895e-07 5.0215e-23
3.507e-07 4.6766e-23
3.5246e-07 4.6499e-23
3.5423e-07 5.4127e-23
3.5601e-07 4.7361e-23
3.5779e-07 5.5051e-23
3.5959e-07 4.7819e-23
3.6139e-07 5.3675e-23
3.632e-07 5.2531e-23
3.6502e-07 5.9776e-23
3.6686e-07 5.3029e-23
3.687e-07 5.4594e-23
3.7054e-07 5.3891e-23
3.724e-07 6.2169e-23
3.7427e-07 5.5306e-23
3.7615e-07 6.6529e-23
3.7804e-07 5.4286e-23
3.7993e-07 6.4925e-23
3.8184e-07 6.017e-23
3.8375e-07 6.0135e-23
3.8568e-07 6.188e-23
3.8761e-07 6.2391e-23
3.8956e-07 6.3437e-23
3.9151e-07 6.4784e-23
3.9347e-07 5.7584e-23
3.9545e-07 6.4723e-23
3.9743e-07 6.0223e-23
3.9942e-07 6.1428e-23
4.0143e-07 6.5637e-23
4.0344e-07 5.7258e-23
4.0546e-07 6.4348e-23
4.075e-07 5.4522e-23
4.0954e-07 6.3837e-23
4.116e-07 5.5958e-23
4.1366e-07 7.2065e-23
4.1574e-07 5.2443e-23
4.1782e-07 5.731e-23
4.1992e-07 6.2057e-23
4.2202e-07 6.3301e-23
4.2414e-07 6.5478e-23
4.2627e-07 4.7257e-23
4.2841e-07 5.9279e-23
4.3055e-07 5.94e-23
4.3271e-07 4.8068e-23
4.3488e-07 6.7336e-23
4.3707e-07 4.7528e-23
4.3926e-07 6.8609e-23
4.4146e-07 4.0833e-23
4.4368e-07 4.7789e-23
4.459e-07 5.0754e-23
4.4814e-07 6.9001e-23
4.5038e-07 4.6025e-23
4.5264e-07 4.7549e-23
4.5491e-07 4.5646e-23
4.572e-07 4.3015e-23
4.5949e-07 4.3336e-23
4.6179e-07 4.0095e-23
4.6411e-07 4.6722e-23
4.6644e-07 3.7548e-23
4.6878e-07 3.5743e-23
4.7113e-07 3.2875e-23
4.7349e-07 4.3857e-23
4.7587e-07 3.8443e-23
4.7825e-07 3.287e-23
4.8065e-07 3.6224e-23
4.8306e-07 2.5439e-23
4.8549e-07 2.8629e-23
4.8792e-07 3.3129e-23
4.9037e-07 3.0813e-23
4.9283e-07 2.6834e-23
4.953e-07 3.2825e-23
4.9779e-07 2.2457e-23
5.0028e-07 1.6789e-23
5.0279e-07 2.7422e-23
5.0531e-07 2.8961e-23
5.0785e-07 2.0616e-23
5.104e-07 2.6132e-23
5.1296e-07 2.2054e-23
5.1553e-07 1.5688e-23
5.1811e-07 1.7462e-23
5.2071e-07 1.6846e-23
5.2332e-07 1.5216e-23
5.2595e-07 2.2577e-23
5.2859e-07 1.6602e-23
5.3124e-07 1.5842e-23
5.339e-07 1.3253e-23
5.3658e-07 9.0556e-24
5.3927e-07 1.2531e-23
5.4198e-07 1.3866e-23
5.447e-07 1.4107e-23
5.4743e-07 1.3326e-23
5.5017e-07 1.1106e-23
5.5293e-07 1.1431e-23
5.5571e-07 6.7286e-24
5.5849e-07 6.4202e-24
5.613e-07 7.0324e-24
5.6411e-07 1.2114e-23
5.6694e-07 6.268e-24
5.6978e-07 8.2326e-24
5.7264e-07 8.4129e-24
5.7551e-07 4.3083e-24
5.784e-07 5.004e-24
5.813e-07 4.0245e-24
5.8422e-07 4.6676e-24
5.8715e-07 5.0342e-24
5.9009e-07 6.1634e-24
5.9305e-07 7.3463e-24
5.9603e-07 3.0648e-24
5.9902e-07 4.1039e-24
6.0202e-07 3.9829e-24
6.0504e-07 1.8347e-24
6.0808e-07 2.0683e-24
6.1113e-07 3.1483e-24
6.1419e-07 3.385e-24
6.1727e-07 3.8393e-24
6.2037e-07 3.2577e-24
6.2348e-07 2.3702e-24
6.2661e-07 1.774e-24
6.2975e-07 1.1589e-24
6.3291e-07 1.3014e-24
6.3608e-07 1.4988e-24
6.3927e-07 1.4414e-24
6.4248e-07 2.1902e-24
6.457e-07 1.9195e-24
6.4894e-07 1.2921e-24
6.522e-07 1.1971e-24
6.5547e-07 1.0085e-24
6.5876e-07 7.1554e-25
6.6206e-07 4.1859e-25
6.6538e-07 6.2659e-25
6.6872e-07 -0
6.7207e-07 -0
6.7544e-07 -0
6.7883e-07 -0
6.8224e-07 -0
6.8566e-07 -0
6.891e-07 -0
6.9255e-07 -0
6.9603e-07 -0
6.9952e-07 -0
7.0303e-07 -0
7.0655e-07 -0
7.101e-07 -0
7.1366e-07 -0
7.1724e-07 -0
7.2084e-07 -0
7.2445e-07 -0
7.2809e-07 -0
7.3174e-07 -0
7.3541e-07 -0
7.391e-07 -0
7.428e-07 -0
7.4653e-07 -0
7.5027e-07 -0
7.5404e-07 -0
7.5782e-07 -0
7.6162e-07 -0
7.6544e-07 -0
7.6928e-07 -0
7.7314e-07 -0
7.7702e-07 -0
7.8091e-07 -0
7.8483e-07 -0
7.8877e-07 -0
7.9272e-07 -0
7.967e-07 -0
8.007e-07 -0
8.0471e-07 -0
8.0875e-07 -0
8.1281e-07 -0
8.1688e-07 -0
8.2098e-07 -0
8.251e-07 -0
8.2924e-07 -0
8.334e-07 -0
8.3758e-07 -0
8.4178e-07 -0
8.46e-07 -0
8.5024e-07 -0
8.5451e-07 -0
8.5879e-07 -0
8.631e-07 -0
8.6743e-07 -0
8.7178e-07 -0
8.7615e-07 -0
8.8055e-07 -0
8.8496e-07 -0
8.894e-07 -0
8.9386e-07 -0
8.9835e-07 -0
9.0285e-07 -0
9.0738e-07 -0
9.1193e-07 -0
9.1651e-07 -0
9.211e-07 -0
9.2572e-07 -0
9.3037e-07 -0
9.3503e-07 -0
9.3972e-07 -0
9.4444e-07 -0
9.4918e-07 -0
9.5394e-07 -0
9.5872e-07 -0
9.6353e-07 -0
9.6836e-07 -0
9.7322e-07 -0
9.781e-07 -0
9.8301e-07 -0
9.8794e-07 -0
9.9289e-07 -0
9.9787e-07 -0
1.0029e-06 -0
1.0079e-06 -0
1.013e-06 -0
1.018e-06 -0
1.0232e-06 -0
1.0283e-06 -0
1.03e-06 -0