File: material/gas/smooth_input/no2_uv_vis_T1_P0.txt
2.8e-07 5.7356e-24
2.8141e-07 6.0473e-24
2.8282e-07 6.0253e-24
2.8424e-07 7.2291e-24
2.8567e-07 7.9229e-24
2.8711e-07 7.8625e-24
2.8855e-07 8.26e-24
2.9e-07 9.2432e-24
2.9145e-07 1.0472e-23
2.9292e-07 1.0509e-23
2.9439e-07 1.0887e-23
2.9587e-07 1.1198e-23
2.9736e-07 1.4207e-23
2.9885e-07 1.3451e-23
3.0035e-07 1.3474e-23
3.0186e-07 1.4825e-23
3.0338e-07 1.6718e-23
3.049e-07 1.7171e-23
3.0643e-07 1.736e-23
3.0797e-07 1.8031e-23
3.0952e-07 2.0266e-23
3.1108e-07 2.0873e-23
3.1264e-07 2.2387e-23
3.1421e-07 2.2291e-23
3.1579e-07 2.3373e-23
3.1738e-07 2.567e-23
3.1897e-07 2.5904e-23
3.2057e-07 2.7716e-23
3.2218e-07 2.8285e-23
3.238e-07 2.913e-23
3.2543e-07 3.1723e-23
3.2707e-07 3.2116e-23
3.2871e-07 3.2757e-23
3.3036e-07 3.4102e-23
3.3202e-07 3.5397e-23
3.3369e-07 3.7687e-23
3.3537e-07 3.7838e-23
3.3705e-07 3.8469e-23
3.3874e-07 4.2564e-23
3.4045e-07 4.3203e-23
3.4216e-07 4.2078e-23
3.4388e-07 4.2235e-23
3.456e-07 4.459e-23
3.4734e-07 4.7383e-23
3.4909e-07 4.8463e-23
3.5084e-07 4.6861e-23
3.526e-07 4.5288e-23
3.5437e-07 5.3235e-23
3.5615e-07 4.9393e-23
3.5794e-07 5.3873e-23
3.5974e-07 4.8427e-23
3.6155e-07 5.3074e-23
3.6337e-07 5.2064e-23
3.6519e-07 5.9279e-23
3.6703e-07 5.464e-23
3.6887e-07 5.5046e-23
3.7073e-07 5.4179e-23
3.7259e-07 6.0364e-23
3.7446e-07 5.5618e-23
3.7634e-07 6.5243e-23
3.7823e-07 5.4815e-23
3.8013e-07 6.3564e-23
3.8204e-07 5.9157e-23
3.8396e-07 6.0832e-23
3.8589e-07 6.0539e-23
3.8783e-07 6.1732e-23
3.8978e-07 6.3142e-23
3.9174e-07 6.4796e-23
3.9371e-07 5.7982e-23
3.9568e-07 6.3398e-23
3.9767e-07 6.3081e-23
3.9967e-07 6.5163e-23
4.0168e-07 6.3379e-23
4.037e-07 5.9246e-23
4.0573e-07 6.0946e-23
4.0776e-07 5.9889e-23
4.0981e-07 6.5008e-23
4.1187e-07 5.7601e-23
4.1394e-07 6.5973e-23
4.1602e-07 5.3057e-23
4.1811e-07 5.7823e-23
4.2021e-07 6.1763e-23
4.2232e-07 6.2054e-23
4.2445e-07 6.3531e-23
4.2658e-07 5.0959e-23
4.2872e-07 5.479e-23
4.3088e-07 5.8296e-23
4.3304e-07 5.2381e-23
4.3522e-07 6.4629e-23
4.374e-07 4.607e-23
4.396e-07 6.2069e-23
4.4181e-07 4.1321e-23
4.4403e-07 5.3316e-23
4.4626e-07 4.8707e-23
4.485e-07 5.954e-23
4.5076e-07 4.5614e-23
4.5302e-07 4.5723e-23
4.553e-07 4.3848e-23
4.5759e-07 4.6543e-23
4.5989e-07 4.6009e-23
4.622e-07 4.4575e-23
4.6452e-07 4.3207e-23
4.6685e-07 4.0293e-23
4.692e-07 3.4939e-23
4.7156e-07 3.4045e-23
4.7393e-07 4.6082e-23
4.7631e-07 3.6696e-23
4.787e-07 3.5554e-23
4.8111e-07 3.5845e-23
4.8352e-07 2.5846e-23
4.8595e-07 2.8122e-23
4.8839e-07 3.8134e-23
4.9085e-07 2.7957e-23
4.9331e-07 2.9527e-23
4.9579e-07 3.2889e-23
4.9828e-07 2.0554e-23
5.0079e-07 1.837e-23
5.033e-07 2.6068e-23
5.0583e-07 2.596e-23
5.0837e-07 2.3042e-23
5.1093e-07 2.5397e-23
5.135e-07 2.0014e-23
5.1608e-07 1.5046e-23
5.1867e-07 1.8463e-23
5.2127e-07 1.5853e-23
5.2389e-07 1.6973e-23
5.2653e-07 2.0942e-23
5.2917e-07 1.5932e-23
5.3183e-07 1.6195e-23
5.345e-07 1.17e-23
5.3719e-07 9.5647e-24
5.3989e-07 1.0681e-23
5.426e-07 1.4415e-23
5.4533e-07 1.366e-23
5.4807e-07 1.3386e-23
5.5082e-07 1.0334e-23
5.5359e-07 1.0428e-23
5.5637e-07 6.7278e-24
5.5917e-07 5.8834e-24
5.6198e-07 7.8052e-24
5.648e-07 1.0849e-23
5.6764e-07 7.4373e-24
5.7049e-07 9.5622e-24
5.7336e-07 7.0612e-24
5.7624e-07 3.7996e-24
5.7913e-07 5.5117e-24
5.8204e-07 3.8247e-24
5.8497e-07 5.504e-24
5.8791e-07 4.6476e-24
5.9086e-07 6.5706e-24
5.9383e-07 5.4996e-24
5.9681e-07 3.2517e-24
5.9981e-07 4.5268e-24
6.0282e-07 2.9558e-24
6.0585e-07 1.847e-24
6.089e-07 2.0127e-24
6.1196e-07 4.1812e-24
6.1503e-07 3.3014e-24
6.1812e-07 3.0662e-24
6.2123e-07 2.7584e-24
6.2435e-07 2.265e-24
6.2749e-07 1.56e-24
6.3064e-07 1.2312e-24
6.3381e-07 1.407e-24
6.3699e-07 1.5202e-24
6.4019e-07 1.568e-24
6.4341e-07 1.9408e-24
6.4664e-07 2.36e-24
6.4989e-07 1.3373e-24
6.5316e-07 1.0525e-24
6.5644e-07 8.7446e-25
6.5974e-07 6.6635e-25
6.6305e-07 4.133e-25
6.6638e-07 4.1207e-25
6.6973e-07 -0
6.731e-07 -0
6.7648e-07 -0
6.7988e-07 -0
6.8329e-07 -0
6.8673e-07 -0
6.9018e-07 -0
6.9365e-07 -0
6.9713e-07 -0
7.0063e-07 -0
7.0415e-07 -0
7.0769e-07 -0
7.1125e-07 -0
7.1482e-07 -0
7.1841e-07 -0
7.2202e-07 -0
7.2565e-07 -0
7.293e-07 -0
7.3296e-07 -0
7.3664e-07 -0
7.4035e-07 -0
7.4407e-07 -0
7.478e-07 -0
7.5156e-07 -0
7.5534e-07 -0
7.5913e-07 -0
7.6295e-07 -0
7.6678e-07 -0
7.7063e-07 -0
7.7451e-07 -0
7.784e-07 -0
7.8231e-07 -0
7.8624e-07 -0
7.9019e-07 -0
7.9416e-07 -0
7.9815e-07 -0
8.0216e-07 -0
8.0619e-07 -0
8.1024e-07 -0
8.1431e-07 -0
8.1841e-07 -0
8.2252e-07 -0
8.2665e-07 -0
8.308e-07 -0
8.3498e-07 -0
8.3917e-07 -0
8.4339e-07 -0
8.4763e-07 -0
8.5189e-07 -0
8.5617e-07 -0
8.6047e-07 -0
8.6479e-07 -0
8.6914e-07 -0
8.735e-07 -0
8.7789e-07 -0
8.823e-07 -0
8.8674e-07 -0
8.9119e-07 -0
8.9567e-07 -0
9.0017e-07 -0
9.0469e-07 -0
9.0924e-07 -0
9.1381e-07 -0
9.184e-07 -0
9.2301e-07 -0
9.2765e-07 -0
9.3231e-07 -0
9.37e-07 -0
9.4171e-07 -0
9.4644e-07 -0
9.5119e-07 -0
9.5597e-07 -0
9.6078e-07 -0
9.656e-07 -0
9.7046e-07 -0
9.7533e-07 -0
9.8023e-07 -0
9.8516e-07 -0
9.9011e-07 -0
9.9508e-07 -0
1.0001e-06 -0
1.0051e-06 -0
1.0102e-06 -0
1.0152e-06 -0
1.0203e-06 -0
1.0255e-06 -0
1.0306e-06 -0
1.0358e-06 -0
1.041e-06 -0
1.0462e-06 -0
1.0515e-06 -0
1.0568e-06 -0
1.0621e-06 -0
1.0674e-06 -0
1.0728e-06 -0
1.0782e-06 -0
1.0836e-06 -0
1.089e-06 -0
1.0945e-06 -0
1.1e-06 -0