File: material/gas/smooth_input/no2_uv_vis_T0_P1.txt
2.8e-07 5.7347e-24
2.8141e-07 6.0526e-24
2.8282e-07 6.0222e-24
2.8424e-07 7.2219e-24
2.8567e-07 7.9185e-24
2.8711e-07 7.8595e-24
2.8855e-07 8.2509e-24
2.9e-07 9.2376e-24
2.9145e-07 1.0456e-23
2.9292e-07 1.0525e-23
2.9439e-07 1.0878e-23
2.9587e-07 1.1188e-23
2.9736e-07 1.4201e-23
2.9885e-07 1.3447e-23
3.0035e-07 1.3476e-23
3.0186e-07 1.4824e-23
3.0338e-07 1.6719e-23
3.049e-07 1.7173e-23
3.0643e-07 1.7359e-23
3.0797e-07 1.8035e-23
3.0952e-07 2.0272e-23
3.1108e-07 2.0879e-23
3.1264e-07 2.2394e-23
3.1421e-07 2.228e-23
3.1579e-07 2.3384e-23
3.1738e-07 2.5686e-23
3.1897e-07 2.5921e-23
3.2057e-07 2.7734e-23
3.2218e-07 2.8306e-23
3.238e-07 2.9156e-23
3.2543e-07 3.1744e-23
3.2707e-07 3.2153e-23
3.2871e-07 3.2793e-23
3.3036e-07 3.4143e-23
3.3202e-07 3.5453e-23
3.3369e-07 3.774e-23
3.3537e-07 3.7953e-23
3.3705e-07 3.8531e-23
3.3874e-07 4.2724e-23
3.4045e-07 4.3318e-23
3.4216e-07 4.2361e-23
3.4388e-07 4.235e-23
3.456e-07 4.4873e-23
3.4734e-07 4.7617e-23
3.4909e-07 4.8909e-23
3.5084e-07 4.719e-23
3.526e-07 4.5575e-23
3.5437e-07 5.3629e-23
3.5615e-07 4.9752e-23
3.5794e-07 5.4314e-23
3.5974e-07 4.8676e-23
3.6155e-07 5.3467e-23
3.6337e-07 5.2542e-23
3.6519e-07 5.9721e-23
3.6703e-07 5.5298e-23
3.6887e-07 5.5548e-23
3.7073e-07 5.5453e-23
3.7259e-07 6.1171e-23
3.7446e-07 5.5975e-23
3.7634e-07 6.4703e-23
3.7823e-07 5.5297e-23
3.8013e-07 6.4028e-23
3.8204e-07 5.96e-23
3.8396e-07 6.131e-23
3.8589e-07 6.1043e-23
3.8783e-07 6.2089e-23
3.8978e-07 6.3355e-23
3.9174e-07 6.5014e-23
3.9371e-07 5.8203e-23
3.9568e-07 6.3561e-23
3.9767e-07 6.3079e-23
3.9967e-07 6.5193e-23
4.0168e-07 6.3512e-23
4.037e-07 5.9445e-23
4.0573e-07 6.1174e-23
4.0776e-07 6.0116e-23
4.0981e-07 6.5243e-23
4.1187e-07 5.7826e-23
4.1394e-07 6.6178e-23
4.1602e-07 5.3123e-23
4.1811e-07 5.7942e-23
4.2021e-07 6.1933e-23
4.2232e-07 6.2241e-23
4.2445e-07 6.3702e-23
4.2658e-07 5.1099e-23
4.2872e-07 5.4949e-23
4.3088e-07 5.8458e-23
4.3304e-07 5.2524e-23
4.3522e-07 6.4792e-23
4.374e-07 4.6186e-23
4.396e-07 6.2155e-23
4.4181e-07 4.13e-23
4.4403e-07 5.3266e-23
4.4626e-07 4.8683e-23
4.485e-07 5.9598e-23
4.5076e-07 4.5688e-23
4.5302e-07 4.58e-23
4.553e-07 4.3914e-23
4.5759e-07 4.6599e-23
4.5989e-07 4.6052e-23
4.622e-07 4.4618e-23
4.6452e-07 4.3262e-23
4.6685e-07 4.033e-23
4.692e-07 3.4943e-23
4.7156e-07 3.4063e-23
4.7393e-07 4.6117e-23
4.7631e-07 3.6731e-23
4.787e-07 3.5579e-23
4.8111e-07 3.5866e-23
4.8352e-07 2.5864e-23
4.8595e-07 2.8134e-23
4.8839e-07 3.8151e-23
4.9085e-07 2.7977e-23
4.9331e-07 2.9551e-23
4.9579e-07 3.2912e-23
4.9828e-07 2.0569e-23
5.0079e-07 1.8373e-23
5.033e-07 2.6021e-23
5.0583e-07 2.5919e-23
5.0837e-07 2.3008e-23
5.1093e-07 2.5394e-23
5.135e-07 2.0027e-23
5.1608e-07 1.5056e-23
5.1867e-07 1.8474e-23
5.2127e-07 1.5862e-23
5.2389e-07 1.6982e-23
5.2653e-07 2.0952e-23
5.2917e-07 1.5941e-23
5.3183e-07 1.6204e-23
5.345e-07 1.1706e-23
5.3719e-07 9.5703e-24
5.3989e-07 1.0682e-23
5.426e-07 1.4408e-23
5.4533e-07 1.3655e-23
5.4807e-07 1.3387e-23
5.5082e-07 1.0338e-23
5.5359e-07 1.0433e-23
5.5637e-07 6.7301e-24
5.5917e-07 5.8856e-24
5.6198e-07 7.8086e-24
5.648e-07 1.0854e-23
5.6764e-07 7.4373e-24
5.7049e-07 9.5578e-24
5.7336e-07 7.0584e-24
5.7624e-07 3.7992e-24
5.7913e-07 5.5133e-24
5.8204e-07 3.8263e-24
5.8497e-07 5.5051e-24
5.8791e-07 4.6371e-24
5.9086e-07 6.5496e-24
5.9383e-07 5.4796e-24
5.9681e-07 3.2443e-24
5.9981e-07 4.5214e-24
6.0282e-07 2.9565e-24
6.0585e-07 1.8478e-24
6.089e-07 2.0134e-24
6.1196e-07 4.1831e-24
6.1503e-07 3.3034e-24
6.1812e-07 3.0684e-24
6.2123e-07 2.7607e-24
6.2435e-07 2.2671e-24
6.2749e-07 1.5588e-24
6.3064e-07 1.2319e-24
6.3381e-07 1.4079e-24
6.3699e-07 1.5215e-24
6.4019e-07 1.5695e-24
6.4341e-07 1.9423e-24
6.4664e-07 2.3576e-24
6.4989e-07 1.335e-24
6.5316e-07 1.0518e-24
6.5644e-07 8.7343e-25
6.5974e-07 6.6658e-25
6.6305e-07 4.14e-25
6.6638e-07 4.1289e-25
6.6973e-07 -0
6.731e-07 -0
6.7648e-07 -0
6.7988e-07 -0
6.8329e-07 -0
6.8673e-07 -0
6.9018e-07 -0
6.9365e-07 -0
6.9713e-07 -0
7.0063e-07 -0
7.0415e-07 -0
7.0769e-07 -0
7.1125e-07 -0
7.1482e-07 -0
7.1841e-07 -0
7.2202e-07 -0
7.2565e-07 -0
7.293e-07 -0
7.3296e-07 -0
7.3664e-07 -0
7.4035e-07 -0
7.4407e-07 -0
7.478e-07 -0
7.5156e-07 -0
7.5534e-07 -0
7.5913e-07 -0
7.6295e-07 -0
7.6678e-07 -0
7.7063e-07 -0
7.7451e-07 -0
7.784e-07 -0
7.8231e-07 -0
7.8624e-07 -0
7.9019e-07 -0
7.9416e-07 -0
7.9815e-07 -0
8.0216e-07 -0
8.0619e-07 -0
8.1024e-07 -0
8.1431e-07 -0
8.1841e-07 -0
8.2252e-07 -0
8.2665e-07 -0
8.308e-07 -0
8.3498e-07 -0
8.3917e-07 -0
8.4339e-07 -0
8.4763e-07 -0
8.5189e-07 -0
8.5617e-07 -0
8.6047e-07 -0
8.6479e-07 -0
8.6914e-07 -0
8.735e-07 -0
8.7789e-07 -0
8.823e-07 -0
8.8674e-07 -0
8.9119e-07 -0
8.9567e-07 -0
9.0017e-07 -0
9.0469e-07 -0
9.0924e-07 -0
9.1381e-07 -0
9.184e-07 -0
9.2301e-07 -0
9.2765e-07 -0
9.3231e-07 -0
9.37e-07 -0
9.4171e-07 -0
9.4644e-07 -0
9.5119e-07 -0
9.5597e-07 -0
9.6078e-07 -0
9.656e-07 -0
9.7046e-07 -0
9.7533e-07 -0
9.8023e-07 -0
9.8516e-07 -0
9.9011e-07 -0
9.9508e-07 -0
1.0001e-06 -0
1.0051e-06 -0
1.0102e-06 -0
1.0152e-06 -0
1.0203e-06 -0
1.0255e-06 -0
1.0306e-06 -0
1.0358e-06 -0
1.041e-06 -0
1.0462e-06 -0
1.0515e-06 -0
1.0568e-06 -0
1.0621e-06 -0
1.0674e-06 -0
1.0728e-06 -0
1.0782e-06 -0
1.0836e-06 -0
1.089e-06 -0
1.0945e-06 -0
1.1e-06 -0