File: material/gas/smooth_input/no2_uv_vis_T0_P0.txt
2.8e-07 5.6967e-24
2.8131e-07 6.1755e-24
2.8263e-07 5.7623e-24
2.8395e-07 7.0371e-24
2.8528e-07 7.6608e-24
2.8662e-07 7.9528e-24
2.8796e-07 7.8883e-24
2.8931e-07 8.6418e-24
2.9066e-07 9.4231e-24
2.9202e-07 1.072e-23
2.9339e-07 1.0222e-23
2.9476e-07 1.1328e-23
2.9614e-07 1.1327e-23
2.9753e-07 1.4669e-23
2.9892e-07 1.3342e-23
3.0032e-07 1.3369e-23
3.0173e-07 1.4506e-23
3.0314e-07 1.6726e-23
3.0456e-07 1.7021e-23
3.0598e-07 1.6697e-23
3.0742e-07 1.8488e-23
3.0885e-07 1.9388e-23
3.103e-07 1.988e-23
3.1175e-07 2.145e-23
3.1321e-07 2.2115e-23
3.1468e-07 2.3393e-23
3.1615e-07 2.2885e-23
3.1763e-07 2.6671e-23
3.1912e-07 2.5603e-23
3.2061e-07 2.7973e-23
3.2211e-07 2.8169e-23
3.2362e-07 2.9294e-23
3.2514e-07 3.1572e-23
3.2666e-07 3.2335e-23
3.2819e-07 3.2888e-23
3.2972e-07 3.4786e-23
3.3127e-07 3.4285e-23
3.3282e-07 3.9645e-23
3.3438e-07 3.495e-23
3.3594e-07 3.7635e-23
3.3752e-07 3.7256e-23
3.391e-07 4.433e-23
3.4068e-07 4.3699e-23
3.4228e-07 4.1419e-23
3.4388e-07 4.2962e-23
3.4549e-07 4.4155e-23
3.4711e-07 4.7376e-23
3.4873e-07 5.333e-23
3.5036e-07 4.525e-23
3.52e-07 4.6665e-23
3.5365e-07 4.7044e-23
3.5531e-07 5.0989e-23
3.5697e-07 5.6063e-23
3.5864e-07 5.0234e-23
3.6032e-07 5.0237e-23
3.6201e-07 5.2346e-23
3.637e-07 5.1431e-23
3.6541e-07 6.2015e-23
3.6712e-07 5.5447e-23
3.6884e-07 5.4922e-23
3.7056e-07 5.5158e-23
3.723e-07 6.3151e-23
3.7404e-07 5.6754e-23
3.7579e-07 6.3226e-23
3.7755e-07 5.5733e-23
3.7932e-07 6.0421e-23
3.8109e-07 6.1817e-23
3.8288e-07 5.7233e-23
3.8467e-07 6.4084e-23
3.8647e-07 5.8024e-23
3.8828e-07 6.1663e-23
3.901e-07 6.3294e-23
3.9192e-07 6.7018e-23
3.9376e-07 5.8058e-23
3.956e-07 6.5764e-23
3.9745e-07 5.9796e-23
3.9931e-07 6.0729e-23
4.0118e-07 6.7136e-23
4.0306e-07 5.6104e-23
4.0495e-07 6.5383e-23
4.0684e-07 5.2326e-23
4.0875e-07 6.8797e-23
4.1066e-07 6.7661e-23
4.1258e-07 6.0459e-23
4.1452e-07 5.9243e-23
4.1646e-07 5.186e-23
4.1841e-07 5.9404e-23
4.2037e-07 6.2095e-23
4.2233e-07 6.3267e-23
4.2431e-07 6.6083e-23
4.263e-07 4.7362e-23
4.2829e-07 6.0586e-23
4.303e-07 5.5216e-23
4.3231e-07 4.8403e-23
4.3434e-07 5.8518e-23
4.3637e-07 5.6331e-23
4.3841e-07 4.9611e-23
4.4046e-07 4.9604e-23
4.4253e-07 4.2398e-23
4.446e-07 6.2545e-23
4.4668e-07 4.3819e-23
4.4877e-07 5.594e-23
4.5087e-07 4.6508e-23
4.5298e-07 4.6595e-23
4.551e-07 4.5397e-23
4.5723e-07 4.3827e-23
4.5937e-07 4.2947e-23
4.6152e-07 4.1896e-23
4.6368e-07 5.1753e-23
4.6586e-07 3.1249e-23
4.6804e-07 4.0952e-23
4.7023e-07 3.4646e-23
4.7243e-07 3.4489e-23
4.7464e-07 4.8265e-23
4.7686e-07 3.392e-23
4.7909e-07 3.7359e-23
4.8134e-07 3.6517e-23
4.8359e-07 2.4651e-23
4.8585e-07 2.895e-23
4.8813e-07 3.6403e-23
4.9041e-07 3.0471e-23
4.9271e-07 2.6341e-23
4.9502e-07 3.3472e-23
4.9733e-07 2.5343e-23
4.9966e-07 1.6301e-23
5.02e-07 2.2956e-23
5.0435e-07 3.0039e-23
5.0671e-07 2.2549e-23
5.0909e-07 2.5916e-23
5.1147e-07 2.4303e-23
5.1386e-07 1.8347e-23
5.1627e-07 1.5016e-23
5.1869e-07 1.9536e-23
5.2111e-07 1.5694e-23
5.2355e-07 1.5099e-23
5.26e-07 2.2406e-23
5.2847e-07 1.695e-23
5.3094e-07 1.5743e-23
5.3343e-07 1.4361e-23
5.3592e-07 9.0097e-24
5.3843e-07 1.2657e-23
5.4095e-07 9.3644e-24
5.4349e-07 1.475e-23
5.4603e-07 1.224e-23
5.4859e-07 1.3468e-23
5.5115e-07 9.5406e-24
5.5373e-07 1.0491e-23
5.5633e-07 6.6009e-24
5.5893e-07 5.7378e-24
5.6155e-07 7.2506e-24
5.6418e-07 1.2138e-23
5.6682e-07 6.1124e-24
5.6947e-07 7.757e-24
5.7214e-07 9.6722e-24
5.7482e-07 4.9713e-24
5.7751e-07 3.7413e-24
5.8021e-07 5.5286e-24
5.8293e-07 3.7183e-24
5.8565e-07 6.1033e-24
5.884e-07 4.2579e-24
5.9115e-07 6.4649e-24
5.9392e-07 5.0691e-24
5.967e-07 3.2138e-24
5.9949e-07 4.4365e-24
6.023e-07 3.6357e-24
6.0512e-07 1.8676e-24
6.0795e-07 2.0755e-24
6.108e-07 2.5936e-24
6.1366e-07 3.6092e-24
6.1653e-07 4.0926e-24
6.1942e-07 2.5777e-24
6.2232e-07 2.1749e-24
6.2523e-07 2.183e-24
6.2816e-07 1.3836e-24
6.311e-07 1.2841e-24
6.3405e-07 1.4921e-24
6.3702e-07 1.5367e-24
6.4e-07 1.5562e-24
6.43e-07 2.155e-24
6.4601e-07 2.1255e-24
6.4903e-07 1.2638e-24
6.5207e-07 1.2231e-24
6.5512e-07 1.0033e-24
6.5819e-07 6.9738e-25
6.6127e-07 4.9168e-25
6.6437e-07 4.6444e-25
6.6748e-07 1.8293e-26
6.706e-07 0
6.7374e-07 0
6.769e-07 0
6.8006e-07 0
6.8325e-07 0
6.8645e-07 0
6.8966e-07 0
6.9289e-07 0
6.9613e-07 0
6.9939e-07 0
7.0267e-07 0
7.0595e-07 0
7.0926e-07 0
7.1258e-07 0
7.1592e-07 0
7.1927e-07 0
7.2263e-07 0
7.2602e-07 0
7.2942e-07 0
7.3283e-07 0
7.3626e-07 0
7.3971e-07 0
7.4317e-07 0
7.4665e-07 0
7.5015e-07 0
7.5366e-07 0
7.5719e-07 0
7.6073e-07 0
7.6429e-07 0
7.6787e-07 0
7.7146e-07 0
7.7508e-07 0
7.787e-07 0
7.8235e-07 0
7.8601e-07 0
7.8969e-07 0
7.9339e-07 0
7.971e-07 0
8.0083e-07 0
8.0458e-07 0
8.0835e-07 0
8.1213e-07 0
8.1594e-07 0
8.1976e-07 0
8.2359e-07 0
8.2745e-07 0
8.3132e-07 0
8.3522e-07 0
8.3913e-07 0
8.4305e-07 0
8.47e-07 0
8.5097e-07 0
8.5495e-07 0
8.5895e-07 0
8.6297e-07 0
8.6701e-07 0
8.7107e-07 0
8.7515e-07 0
8.7925e-07 0
8.8336e-07 0
8.875e-07 0
8.9165e-07 0
8.9583e-07 0
9.0002e-07 0
9.0423e-07 0
9.0847e-07 0
9.1272e-07 0
9.1699e-07 0
9.2129e-07 0
9.256e-07 0
9.2993e-07 0
9.3429e-07 0
9.3866e-07 0
9.4305e-07 0
9.4747e-07 0
9.5e-07 0