File: material/gas/smooth_input/o2_uv_vis_T0_P0.txt
2.8e-07 3.0026e-31
2.8131e-07 3.4773e-31
2.8263e-07 6.4502e-32
2.8395e-07 5.139e-33
2.8528e-07 7.5534e-33
2.8662e-07 1.5999e-31
2.8796e-07 4.0053e-32
2.8931e-07 2.6696e-33
2.9066e-07 2.4865e-37
2.9202e-07 1.5477e-35
2.9339e-07 3.2521e-32
2.9476e-07 1.0661e-36
2.9614e-07 3.2651e-40
2.9753e-07 0
2.9892e-07 0
3.0032e-07 0
3.0173e-07 0
3.0314e-07 0
3.0456e-07 0
3.0598e-07 0
3.0742e-07 0
3.0885e-07 0
3.103e-07 0
3.1175e-07 0
3.1321e-07 0
3.1468e-07 0
3.1615e-07 0
3.1763e-07 0
3.1912e-07 0
3.2061e-07 0
3.2211e-07 0
3.2362e-07 0
3.2514e-07 0
3.2666e-07 0
3.2819e-07 0
3.2972e-07 0
3.3127e-07 0
3.3282e-07 0
3.3438e-07 0
3.3594e-07 0
3.3752e-07 0
3.391e-07 0
3.4068e-07 0
3.4228e-07 0
3.4388e-07 0
3.4549e-07 0
3.4711e-07 0
3.4873e-07 0
3.5036e-07 0
3.52e-07 0
3.5365e-07 0
3.5531e-07 0
3.5697e-07 0
3.5864e-07 0
3.6032e-07 0
3.6201e-07 0
3.637e-07 0
3.6541e-07 0
3.6712e-07 0
3.6884e-07 0
3.7056e-07 0
3.723e-07 0
3.7404e-07 0
3.7579e-07 0
3.7755e-07 0
3.7932e-07 0
3.8109e-07 0
3.8288e-07 0
3.8467e-07 0
3.8647e-07 0
3.8828e-07 0
3.901e-07 0
3.9192e-07 0
3.9376e-07 0
3.956e-07 0
3.9745e-07 0
3.9931e-07 0
4.0118e-07 0
4.0306e-07 0
4.0495e-07 0
4.0684e-07 0
4.0875e-07 0
4.1066e-07 0
4.1258e-07 0
4.1452e-07 0
4.1646e-07 0
4.1841e-07 0
4.2037e-07 0
4.2233e-07 0
4.2431e-07 0
4.263e-07 0
4.2829e-07 0
4.303e-07 0
4.3231e-07 0
4.3434e-07 0
4.3637e-07 0
4.3841e-07 0
4.4046e-07 0
4.4253e-07 0
4.446e-07 0
4.4668e-07 0
4.4877e-07 0
4.5087e-07 0
4.5298e-07 0
4.551e-07 0
4.5723e-07 0
4.5937e-07 0
4.6152e-07 0
4.6368e-07 0
4.6586e-07 0
4.6804e-07 0
4.7023e-07 0
4.7243e-07 0
4.7464e-07 0
4.7686e-07 0
4.7909e-07 0
4.8134e-07 0
4.8359e-07 0
4.8585e-07 0
4.8813e-07 0
4.9041e-07 0
4.9271e-07 0
4.9502e-07 0
4.9733e-07 0
4.9966e-07 0
5.02e-07 0
5.0435e-07 0
5.0671e-07 0
5.0909e-07 0
5.1147e-07 0
5.1386e-07 0
5.1627e-07 0
5.1869e-07 0
5.2111e-07 0
5.2355e-07 0
5.26e-07 0
5.2847e-07 0
5.3094e-07 0
5.3343e-07 0
5.3592e-07 0
5.3843e-07 0
5.4095e-07 0
5.4349e-07 0
5.4603e-07 0
5.4859e-07 0
5.5115e-07 0
5.5373e-07 0
5.5633e-07 0
5.5893e-07 0
5.6155e-07 0
5.6418e-07 0
5.6682e-07 0
5.6947e-07 0
5.7214e-07 4.0543e-38
5.7482e-07 6.9583e-37
5.7751e-07 5.3138e-36
5.8021e-07 1.5196e-32
5.8293e-07 2.5845e-33
5.8565e-07 5.0028e-35
5.884e-07 6.7175e-38
5.9115e-07 1.6253e-39
5.9392e-07 0
5.967e-07 0
5.9949e-07 0
6.023e-07 0
6.0512e-07 0
6.0795e-07 0
6.108e-07 0
6.1366e-07 0
6.1653e-07 0
6.1942e-07 2.3623e-37
6.2232e-07 2.254e-35
6.2523e-07 9.6867e-35
6.2816e-07 9.4244e-31
6.311e-07 2.1374e-31
6.3405e-07 1.7753e-32
6.3702e-07 3.4677e-34
6.4e-07 9.0412e-37
6.43e-07 1.8132e-38
6.4601e-07 8.6161e-41
6.4903e-07 0
6.5207e-07 0
6.5512e-07 0
6.5819e-07 0
6.6127e-07 0
6.6437e-07 0
6.6748e-07 0
6.706e-07 0
6.7374e-07 0
6.769e-07 2.7273e-36
6.8006e-07 4.4883e-34
6.8325e-07 1.6122e-33
6.8645e-07 1.7618e-30
6.8966e-07 3.1026e-30
6.9289e-07 6.0864e-31
6.9613e-07 8.2645e-32
6.9939e-07 1.1059e-32
7.0267e-07 8.7012e-34
7.0595e-07 6.6364e-37
7.0926e-07 7.3524e-38
7.1258e-07 7.7486e-40
7.1592e-07 0
7.1927e-07 0
7.2263e-07 0
7.2602e-07 0
7.2942e-07 0
7.3283e-07 0
7.3626e-07 0
7.3971e-07 3.9462e-41
7.4317e-07 1.0092e-39
7.4665e-07 1.6772e-38
7.5015e-07 3.4993e-33
7.5366e-07 1.2515e-32
7.5719e-07 4.7194e-32
7.6073e-07 3.1216e-29
7.6429e-07 1.3174e-29
7.6787e-07 2.0304e-30
7.7146e-07 1.8108e-31
7.7508e-07 3.5625e-32
7.787e-07 1.0185e-33
7.8235e-07 4.3892e-36
7.8601e-07 4.38e-37
7.8969e-07 8.9761e-39
7.9339e-07 0
7.971e-07 0
8.0083e-07 0
8.0458e-07 0
8.0835e-07 0
8.1213e-07 0
8.1594e-07 0
8.1976e-07 0
8.2359e-07 0
8.2745e-07 0
8.3132e-07 0
8.3522e-07 0
8.3913e-07 0
8.4305e-07 0
8.47e-07 2.6109e-38
8.5097e-07 3.5927e-37
8.5495e-07 1.0823e-36
8.5895e-07 5.4843e-36
8.6297e-07 1.4642e-32
8.6701e-07 7.1992e-33
8.7107e-07 5.591e-34
8.7515e-07 7.9223e-37
8.7925e-07 3.1284e-37
8.8336e-07 5.0025e-38
8.875e-07 2.6905e-41
8.9165e-07 0
8.9583e-07 0
9.0002e-07 0
9.0423e-07 0
9.0847e-07 0
9.1272e-07 0
9.1699e-07 0
9.2129e-07 0
9.256e-07 0
9.2993e-07 0
9.3429e-07 0
9.3866e-07 0
9.4305e-07 0
9.4747e-07 0
9.5e-07 0