File: material/gas/smooth_input/o2_uv_vis_T1_P0.txt
2.8e-07 2.6075e-31
2.8141e-07 2.717e-31
2.8282e-07 5.8169e-32
2.8424e-07 3.2949e-33
2.8567e-07 6.5582e-32
2.8711e-07 1.1748e-31
2.8855e-07 2.01e-32
2.9e-07 1.3148e-33
2.9145e-07 4.1307e-36
2.9292e-07 5.3594e-32
2.9439e-07 2.1241e-33
2.9587e-07 3.0697e-38
2.9736e-07 -0
2.9885e-07 -0
3.0035e-07 -0
3.0186e-07 -0
3.0338e-07 -0
3.049e-07 -0
3.0643e-07 -0
3.0797e-07 -0
3.0952e-07 -0
3.1108e-07 -0
3.1264e-07 -0
3.1421e-07 -0
3.1579e-07 -0
3.1738e-07 -0
3.1897e-07 -0
3.2057e-07 -0
3.2218e-07 -0
3.238e-07 -0
3.2543e-07 -0
3.2707e-07 -0
3.2871e-07 -0
3.3036e-07 -0
3.3202e-07 -0
3.3369e-07 -0
3.3537e-07 -0
3.3705e-07 -0
3.3874e-07 -0
3.4045e-07 -0
3.4216e-07 -0
3.4388e-07 -0
3.456e-07 -0
3.4734e-07 -0
3.4909e-07 -0
3.5084e-07 -0
3.526e-07 -0
3.5437e-07 -0
3.5615e-07 -0
3.5794e-07 -0
3.5974e-07 -0
3.6155e-07 -0
3.6337e-07 -0
3.6519e-07 -0
3.6703e-07 -0
3.6887e-07 -0
3.7073e-07 -0
3.7259e-07 -0
3.7446e-07 -0
3.7634e-07 -0
3.7823e-07 -0
3.8013e-07 -0
3.8204e-07 -0
3.8396e-07 -0
3.8589e-07 -0
3.8783e-07 -0
3.8978e-07 -0
3.9174e-07 -0
3.9371e-07 -0
3.9568e-07 -0
3.9767e-07 -0
3.9967e-07 -0
4.0168e-07 -0
4.037e-07 -0
4.0573e-07 -0
4.0776e-07 -0
4.0981e-07 -0
4.1187e-07 -0
4.1394e-07 -0
4.1602e-07 -0
4.1811e-07 -0
4.2021e-07 -0
4.2232e-07 -0
4.2445e-07 -0
4.2658e-07 -0
4.2872e-07 -0
4.3088e-07 -0
4.3304e-07 -0
4.3522e-07 -0
4.374e-07 -0
4.396e-07 -0
4.4181e-07 -0
4.4403e-07 -0
4.4626e-07 -0
4.485e-07 -0
4.5076e-07 -0
4.5302e-07 -0
4.553e-07 -0
4.5759e-07 -0
4.5989e-07 -0
4.622e-07 -0
4.6452e-07 -0
4.6685e-07 -0
4.692e-07 -0
4.7156e-07 -0
4.7393e-07 -0
4.7631e-07 -0
4.787e-07 -0
4.8111e-07 -0
4.8352e-07 -0
4.8595e-07 -0
4.8839e-07 -0
4.9085e-07 -0
4.9331e-07 -0
4.9579e-07 -0
4.9828e-07 -0
5.0079e-07 -0
5.033e-07 -0
5.0583e-07 -0
5.0837e-07 -0
5.1093e-07 -0
5.135e-07 -0
5.1608e-07 -0
5.1867e-07 -0
5.2127e-07 -0
5.2389e-07 -0
5.2653e-07 -0
5.2917e-07 -0
5.3183e-07 -0
5.345e-07 -0
5.3719e-07 -0
5.3989e-07 -0
5.426e-07 -0
5.4533e-07 -0
5.4807e-07 -0
5.5082e-07 -0
5.5359e-07 -0
5.5637e-07 -0
5.5917e-07 -0
5.6198e-07 -0
5.648e-07 -0
5.6764e-07 -0
5.7049e-07 -6.411e-44
5.7336e-07 4.3145e-37
5.7624e-07 2.6701e-36
5.7913e-07 2.3924e-32
5.8204e-07 7.7633e-33
5.8497e-07 1.8021e-34
5.8791e-07 1.8671e-37
5.9086e-07 5.9446e-39
5.9383e-07 6.7735e-42
5.9681e-07 -0
5.9981e-07 -0
6.0282e-07 -0
6.0585e-07 -0
6.089e-07 -0
6.1196e-07 -0
6.1503e-07 -0
6.1812e-07 -4.9315e-44
6.2123e-07 1.8353e-35
6.2435e-07 9.2506e-35
6.2749e-07 4.8394e-31
6.3064e-07 3.6313e-31
6.3381e-07 3.1457e-32
6.3699e-07 4.3085e-34
6.4019e-07 1.414e-36
6.4341e-07 2.389e-38
6.4664e-07 1.0597e-40
6.4989e-07 -0
6.5316e-07 -0
6.5644e-07 -0
6.5974e-07 -0
6.6305e-07 -0
6.6638e-07 -0
6.6973e-07 -0
6.731e-07 -0
6.7648e-07 1.7518e-35
6.7988e-07 6.192e-34
6.8329e-07 2.6516e-33
6.8673e-07 3.6423e-30
6.9018e-07 3.0577e-30
6.9365e-07 5.4383e-31
6.9713e-07 4.0779e-32
7.0063e-07 8.9753e-33
7.0415e-07 1.4068e-35
7.0769e-07 3.743e-37
7.1125e-07 1.8444e-38
7.1482e-07 -0
7.1841e-07 -0
7.2202e-07 -0
7.2565e-07 -0
7.293e-07 -0
7.3296e-07 -0
7.3664e-07 2.3918e-43
7.4035e-07 1.7812e-40
7.4407e-07 2.7191e-39
7.478e-07 4.9952e-34
7.5156e-07 9.245e-33
7.5534e-07 3.3132e-32
7.5913e-07 7.758e-30
7.6295e-07 1.7813e-29
7.6678e-07 5.2367e-30
7.7063e-07 5.5659e-31
7.7451e-07 7.3151e-32
7.784e-07 2.8678e-33
7.8231e-07 9.0872e-36
7.8624e-07 6.5344e-37
7.9019e-07 1.1979e-38
7.9416e-07 -0
7.9815e-07 -0
8.0216e-07 -0
8.0619e-07 -0
8.1024e-07 -0
8.1431e-07 -0
8.1841e-07 -0
8.2252e-07 -0
8.2665e-07 -0
8.308e-07 -0
8.3498e-07 -0
8.3917e-07 -0
8.4339e-07 -0
8.4763e-07 1.1881e-37
8.5189e-07 7.0337e-37
8.5617e-07 2.2657e-36
8.6047e-07 4.4275e-33
8.6479e-07 1.0339e-32
8.6914e-07 5.5067e-33
8.735e-07 2.4458e-36
8.7789e-07 6.6114e-37
8.823e-07 1.5936e-37
8.8674e-07 3.1956e-39
8.9119e-07 -0
8.9567e-07 -0
9.0017e-07 -0
9.0469e-07 -0
9.0924e-07 -0
9.1381e-07 -0
9.184e-07 -0
9.2301e-07 -0
9.2765e-07 -0
9.3231e-07 -0
9.37e-07 -0
9.4171e-07 -0
9.4644e-07 -0
9.5119e-07 -0
9.5597e-07 -0
9.6078e-07 -0
9.656e-07 -0
9.7046e-07 -0
9.7533e-07 -0
9.8023e-07 -0
9.8516e-07 -0
9.9011e-07 -0
9.9508e-07 -0
1.0001e-06 -0
1.0051e-06 -0
1.0102e-06 -0
1.0152e-06 -0
1.0203e-06 -0
1.0255e-06 1.1589e-43
1.0306e-06 2.9983e-40
1.0358e-06 7.8227e-39
1.041e-06 8.2842e-38
1.0462e-06 6.0947e-37
1.0515e-06 3.2353e-35
1.0568e-06 8.4871e-34
1.0621e-06 9.1527e-33
1.0674e-06 2.8231e-32
1.0728e-06 7.6836e-33
1.0782e-06 1.5526e-33
1.0836e-06 2.6219e-34
1.089e-06 2.289e-35
1.0945e-06 6.7774e-36
1.1e-06 2.582e-38