File: material/gas/smooth_input/o2_uv_vis_toa_T0_P1.txt
2.8e-07 1.3294e-31
2.814e-07 1.6798e-31
2.8282e-07 3.9297e-32
2.8423e-07 2.5244e-33
2.8566e-07 6.1015e-32
2.8709e-07 9.6674e-32
2.8853e-07 1.6302e-32
2.8998e-07 3.8999e-34
2.9143e-07 1.6942e-36
2.929e-07 5.3079e-32
2.9437e-07 3.3425e-35
2.9584e-07 5.9088e-39
2.9733e-07 -0
2.9882e-07 -0
3.0032e-07 -0
3.0182e-07 -0
3.0334e-07 -0
3.0486e-07 -0
3.0639e-07 -0
3.0792e-07 -0
3.0947e-07 -0
3.1102e-07 -0
3.1258e-07 -0
3.1415e-07 -0
3.1572e-07 -0
3.1731e-07 -0
3.189e-07 -0
3.205e-07 -0
3.2211e-07 -0
3.2372e-07 -0
3.2535e-07 -0
3.2698e-07 -0
3.2862e-07 -0
3.3027e-07 -0
3.3192e-07 -0
3.3359e-07 -0
3.3526e-07 -0
3.3694e-07 -0
3.3863e-07 -0
3.4033e-07 -0
3.4204e-07 -0
3.4375e-07 -0
3.4548e-07 -0
3.4721e-07 -0
3.4895e-07 -0
3.507e-07 -0
3.5246e-07 -0
3.5423e-07 -0
3.5601e-07 -0
3.5779e-07 -0
3.5959e-07 -0
3.6139e-07 -0
3.632e-07 -0
3.6502e-07 -0
3.6686e-07 -0
3.687e-07 -0
3.7054e-07 -0
3.724e-07 -0
3.7427e-07 -0
3.7615e-07 -0
3.7804e-07 -0
3.7993e-07 -0
3.8184e-07 -0
3.8375e-07 -0
3.8568e-07 -0
3.8761e-07 -0
3.8956e-07 -0
3.9151e-07 -0
3.9347e-07 -0
3.9545e-07 -0
3.9743e-07 -0
3.9942e-07 -0
4.0143e-07 -0
4.0344e-07 -0
4.0546e-07 -0
4.075e-07 -0
4.0954e-07 -0
4.116e-07 -0
4.1366e-07 -0
4.1574e-07 -0
4.1782e-07 -0
4.1992e-07 -0
4.2202e-07 -0
4.2414e-07 -0
4.2627e-07 -0
4.2841e-07 -0
4.3055e-07 -0
4.3271e-07 -0
4.3488e-07 -0
4.3707e-07 -0
4.3926e-07 -0
4.4146e-07 -0
4.4368e-07 -0
4.459e-07 -0
4.4814e-07 -0
4.5038e-07 -0
4.5264e-07 -0
4.5491e-07 -0
4.572e-07 -0
4.5949e-07 -0
4.6179e-07 -0
4.6411e-07 -0
4.6644e-07 -0
4.6878e-07 -0
4.7113e-07 -0
4.7349e-07 -0
4.7587e-07 -0
4.7825e-07 -0
4.8065e-07 -0
4.8306e-07 -0
4.8549e-07 -0
4.8792e-07 -0
4.9037e-07 -0
4.9283e-07 -0
4.953e-07 -0
4.9779e-07 -0
5.0028e-07 -0
5.0279e-07 -0
5.0531e-07 -0
5.0785e-07 -0
5.104e-07 -0
5.1296e-07 -0
5.1553e-07 -0
5.1811e-07 -0
5.2071e-07 -0
5.2332e-07 -0
5.2595e-07 -0
5.2859e-07 -0
5.3124e-07 -0
5.339e-07 -0
5.3658e-07 -0
5.3927e-07 -0
5.4198e-07 -0
5.447e-07 -0
5.4743e-07 -0
5.5017e-07 -0
5.5293e-07 -0
5.5571e-07 -0
5.5849e-07 -0
5.613e-07 -0
5.6411e-07 -0
5.6694e-07 -0
5.6978e-07 -0
5.7264e-07 1.3338e-37
5.7551e-07 9.1005e-37
5.784e-07 7.8637e-33
5.813e-07 9.4459e-33
5.8422e-07 4.7661e-34
5.8715e-07 1.9972e-37
5.9009e-07 7.2725e-39
5.9305e-07 2.4877e-42
5.9603e-07 -0
5.9902e-07 -0
6.0202e-07 -0
6.0504e-07 -0
6.0808e-07 -0
6.1113e-07 -0
6.1419e-07 -0
6.1727e-07 -0
6.2037e-07 5.1722e-36
6.2348e-07 3.4627e-35
6.2661e-07 3.9205e-34
6.2975e-07 3.1947e-31
6.3291e-07 4.4891e-32
6.3608e-07 1.183e-33
6.3927e-07 1.8468e-36
6.4248e-07 3.3785e-38
6.457e-07 1.8924e-40
6.4894e-07 -0
6.522e-07 -0
6.5547e-07 -0
6.5876e-07 -0
6.6206e-07 -0
6.6538e-07 -0
6.6872e-07 -0
6.7207e-07 -0
6.7544e-07 -0
6.7883e-07 2.2708e-34
6.8224e-07 9.4981e-34
6.8566e-07 1.01e-32
6.891e-07 1.9648e-30
6.9255e-07 5.4048e-31
6.9603e-07 6.8767e-32
6.9952e-07 1.0296e-32
7.0303e-07 2.3501e-34
7.0655e-07 4.0918e-37
7.101e-07 2.9437e-38
7.1366e-07 -0
7.1724e-07 -0
7.2084e-07 -0
7.2445e-07 -0
7.2809e-07 -0
7.3174e-07 -0
7.3541e-07 -0
7.391e-07 1.4487e-41
7.428e-07 7.1466e-40
7.4653e-07 5.0717e-39
7.5027e-07 3.3572e-33
7.5404e-07 1.2694e-32
7.5782e-07 6.5204e-32
7.6162e-07 1.0587e-29
7.6544e-07 5.2307e-30
7.6928e-07 6.8194e-31
7.7314e-07 1.0265e-31
7.7702e-07 5.8933e-33
7.8091e-07 1.3933e-35
7.8483e-07 9.4785e-37
7.8877e-07 2.6486e-38
7.9272e-07 -0
7.967e-07 -0
8.007e-07 -0
8.0471e-07 -0
8.0875e-07 -0
8.1281e-07 -0
8.1688e-07 -0
8.2098e-07 -0
8.251e-07 -0
8.2924e-07 -0
8.334e-07 -0
8.3758e-07 -0
8.4178e-07 -0
8.46e-07 2.3025e-39
8.5024e-07 2.6929e-37
8.5451e-07 8.762e-37
8.5879e-07 3.7928e-36
8.631e-07 1.3386e-32
8.6743e-07 8.3249e-33
8.7178e-07 8.8439e-35
8.7615e-07 6.1506e-37
8.8055e-07 2.0719e-37
8.8496e-07 1.0429e-38
8.894e-07 -0
8.9386e-07 -0
8.9835e-07 -0
9.0285e-07 -0
9.0738e-07 -0
9.1193e-07 -0
9.1651e-07 -0
9.211e-07 -0
9.2572e-07 -0
9.3037e-07 -0
9.3503e-07 -0
9.3972e-07 -0
9.4444e-07 -0
9.4918e-07 -0
9.5394e-07 -0
9.5872e-07 -0
9.6353e-07 -0
9.6836e-07 -0
9.7322e-07 -0
9.781e-07 -0
9.8301e-07 -0
9.8794e-07 -0
9.9289e-07 -0
9.9787e-07 -0
1.0029e-06 -0
1.0079e-06 -0
1.013e-06 -0
1.018e-06 -0
1.0232e-06 -0
1.0283e-06 2.9984e-42
1.03e-06 4.7195e-41