File: material/gas/smooth_input/o3_uv_vis_T0_P0.txt
2.8e-07 3.9325e-22
2.8131e-07 3.4397e-22
2.8263e-07 3.0419e-22
2.8395e-07 2.6754e-22
2.8528e-07 2.3106e-22
2.8662e-07 2.0424e-22
2.8796e-07 1.7143e-22
2.8931e-07 1.4784e-22
2.9066e-07 1.2803e-22
2.9202e-07 1.051e-22
2.9339e-07 8.9347e-23
2.9476e-07 7.5819e-23
2.9614e-07 6.1539e-23
2.9753e-07 5.1167e-23
2.9892e-07 4.3009e-23
3.0032e-07 3.5209e-23
3.0173e-07 2.8674e-23
3.0314e-07 2.3314e-23
3.0456e-07 1.9906e-23
3.0598e-07 1.6187e-23
3.0742e-07 1.2743e-23
3.0885e-07 1.1212e-23
3.103e-07 8.7772e-24
3.1175e-07 7.421e-24
3.1321e-07 5.8959e-24
3.1468e-07 4.4468e-24
3.1615e-07 3.8386e-24
3.1763e-07 3.4644e-24
3.1912e-07 2.1927e-24
3.2061e-07 1.9821e-24
3.2211e-07 1.9196e-24
3.2362e-07 9.4257e-25
3.2514e-07 1.387e-24
3.2666e-07 5.4092e-25
3.2819e-07 9.8787e-25
3.2972e-07 3.019e-25
3.3127e-07 6.2252e-25
3.3282e-07 1.9474e-25
3.3438e-07 2.9222e-25
3.3594e-07 9.9665e-26
3.3752e-07 2.764e-25
3.391e-07 6.7412e-26
3.4068e-07 1.1352e-25
3.4228e-07 3.1228e-26
3.4388e-07 9.1141e-26
3.4549e-07 3.2534e-26
3.4711e-07 3.033e-26
3.4873e-07 1.1392e-26
3.5036e-07 1.0179e-26
3.52e-07 2.3923e-26
3.5365e-07 5.7446e-27
3.5531e-07 5.0206e-27
3.5697e-07 3.5664e-27
3.5864e-07 1.5678e-27
3.6032e-07 4.3662e-27
3.6201e-07 1.2097e-27
3.637e-07 9.4094e-28
3.6541e-07 1.1745e-27
3.6712e-07 7.1016e-28
3.6884e-07 5.8656e-28
3.7056e-07 1.2179e-27
3.723e-07 7.6112e-28
3.7404e-07 6.7011e-28
3.7579e-07 1.1353e-27
3.7755e-07 7.5326e-28
3.7932e-07 5.3942e-28
3.8109e-07 5.3662e-28
3.8288e-07 5.4499e-28
3.8467e-07 5.6867e-28
3.8647e-07 5.5013e-28
3.8828e-07 8.1827e-28
3.901e-07 9.8892e-28
3.9192e-07 1.1023e-27
3.9376e-07 1.0374e-27
3.956e-07 1.2025e-27
3.9745e-07 1.1841e-27
3.9931e-07 1.227e-27
4.0118e-07 1.3331e-27
4.0306e-07 1.4817e-27
4.0495e-07 1.4392e-27
4.0684e-07 1.8297e-27
4.0875e-07 2.5473e-27
4.1066e-07 2.7607e-27
4.1258e-07 2.5453e-27
4.1452e-07 2.6585e-27
4.1646e-07 3.48e-27
4.1841e-07 3.7945e-27
4.2037e-07 3.808e-27
4.2233e-07 5.013e-27
4.2431e-07 6.7939e-27
4.263e-07 7.4493e-27
4.2829e-07 6.7034e-27
4.303e-07 6.7208e-27
4.3231e-07 8.5379e-27
4.3434e-07 9.1167e-27
4.3637e-07 9.163e-27
4.3841e-07 1.1527e-26
4.4046e-07 1.5651e-26
4.4253e-07 1.9189e-26
4.446e-07 1.8063e-26
4.4668e-07 1.5623e-26
4.4877e-07 1.7659e-26
4.5087e-07 2.0756e-26
4.5298e-07 2.0501e-26
4.551e-07 2.2139e-26
4.5723e-07 2.7886e-26
4.5937e-07 3.6565e-26
4.6152e-07 4.247e-26
4.6368e-07 3.96e-26
4.6586e-07 3.4754e-26
4.6804e-07 3.8555e-26
4.7023e-07 4.3817e-26
4.7243e-07 4.3787e-26
4.7464e-07 4.6501e-26
4.7686e-07 5.6917e-26
4.7909e-07 7.2289e-26
4.8134e-07 8.613e-26
4.8359e-07 8.7048e-26
4.8585e-07 7.9791e-26
4.8813e-07 7.8028e-26
4.9041e-07 8.4927e-26
4.9271e-07 8.8865e-26
4.9502e-07 9.101e-26
4.9733e-07 1.0035e-25
4.9966e-07 1.2018e-25
5.02e-07 1.4731e-25
5.0435e-07 1.7235e-25
5.0671e-07 1.7345e-25
5.0909e-07 1.646e-25
5.1147e-07 1.5898e-25
5.1386e-07 1.6443e-25
5.1627e-07 1.7312e-25
5.1869e-07 1.8068e-25
5.2111e-07 1.9088e-25
5.2355e-07 2.0961e-25
5.26e-07 2.3348e-25
5.2847e-07 2.5921e-25
5.3094e-07 2.8047e-25
5.3343e-07 2.9078e-25
5.3592e-07 2.9108e-25
5.3843e-07 2.9333e-25
5.4095e-07 3.1051e-25
5.4349e-07 3.255e-25
5.4603e-07 3.3875e-25
5.4859e-07 3.4245e-25
5.5115e-07 3.4892e-25
5.5373e-07 3.5738e-25
5.5633e-07 3.7149e-25
5.5893e-07 3.9411e-25
5.6155e-07 4.2133e-25
5.6418e-07 4.4469e-25
5.6682e-07 4.6335e-25
5.6947e-07 4.9034e-25
5.7214e-07 5.0186e-25
5.7482e-07 5.0576e-25
5.7751e-07 4.9597e-25
5.8021e-07 4.7926e-25
5.8293e-07 4.6761e-25
5.8565e-07 4.6237e-25
5.884e-07 4.8685e-25
5.9115e-07 4.9563e-25
5.9392e-07 5.0942e-25
5.967e-07 5.3293e-25
5.9949e-07 5.4771e-25
6.023e-07 5.4579e-25
6.0512e-07 5.3323e-25
6.0795e-07 5.1143e-25
6.108e-07 4.8665e-25
6.1366e-07 4.6717e-25
6.1653e-07 4.4795e-25
6.1942e-07 4.3119e-25
6.2232e-07 4.1711e-25
6.2523e-07 4.0486e-25
6.2816e-07 4.0739e-25
6.311e-07 3.7893e-25
6.3405e-07 3.6137e-25
6.3702e-07 3.4236e-25
6.4e-07 3.231e-25
6.43e-07 3.058e-25
6.4601e-07 3.0101e-25
6.4903e-07 2.9412e-25
6.5207e-07 2.8123e-25
6.5512e-07 2.6299e-25
6.5819e-07 2.4455e-25
6.6127e-07 2.2648e-25
6.6437e-07 2.1273e-25
6.6748e-07 1.9721e-25
6.706e-07 1.8289e-25
6.7374e-07 1.7048e-25
6.769e-07 1.5997e-25
6.8006e-07 1.5129e-25
6.8325e-07 1.4583e-25
6.8645e-07 1.445e-25
6.8966e-07 1.4383e-25
6.9289e-07 1.3361e-25
6.9613e-07 1.2321e-25
6.9939e-07 1.1645e-25
7.0267e-07 1.0918e-25
7.0595e-07 1.0273e-25
7.0926e-07 9.5804e-26
7.1258e-07 9.2007e-26
7.1592e-07 9.6099e-26
7.1927e-07 1.0515e-25
7.2263e-07 8.556e-26
7.2602e-07 8.8529e-26
7.2942e-07 8.16e-26
7.3283e-07 7.0545e-26
7.3626e-07 6.8279e-26
7.3971e-07 6.3642e-26
7.4317e-07 6.0367e-26
7.4665e-07 6.0513e-26
7.5015e-07 5.6905e-26
7.5366e-07 4.9052e-26
7.5719e-07 4.497e-26
7.6073e-07 5.9054e-26
7.6429e-07 5.3258e-26
7.6787e-07 4.4483e-26
7.7146e-07 4.1182e-26
7.7508e-07 4.3656e-26
7.787e-07 4.6616e-26
7.8235e-07 4.4211e-26
7.8601e-07 4.0544e-26
7.8969e-07 4.0491e-26
7.9339e-07 3.0954e-26
7.971e-07 0
8.0083e-07 0
8.0458e-07 0
8.0835e-07 0
8.1213e-07 0
8.1594e-07 0
8.1976e-07 0
8.2359e-07 0
8.2745e-07 0
8.3132e-07 0
8.3522e-07 0
8.3913e-07 0
8.4305e-07 0
8.47e-07 0
8.5097e-07 0
8.5495e-07 0
8.5895e-07 0
8.6297e-07 0
8.6701e-07 0
8.7107e-07 0
8.7515e-07 0
8.7925e-07 0
8.8336e-07 0
8.875e-07 0
8.9165e-07 0
8.9583e-07 0
9.0002e-07 0
9.0423e-07 0
9.0847e-07 0
9.1272e-07 0
9.1699e-07 0
9.2129e-07 0
9.256e-07 0
9.2993e-07 0
9.3429e-07 0
9.3866e-07 0
9.4305e-07 0
9.4747e-07 0
9.5e-07 0