File: material/gas/smooth_input/o3_uv_vis_toa_T0_P1.txt
2.8e-07 3.8758e-22
2.814e-07 3.3378e-22
2.8282e-07 2.9899e-22
2.8423e-07 2.5829e-22
2.8566e-07 2.231e-22
2.8709e-07 1.9482e-22
2.8853e-07 1.6056e-22
2.8998e-07 1.3631e-22
2.9143e-07 1.1367e-22
2.929e-07 9.6097e-23
2.9437e-07 7.9206e-23
2.9584e-07 6.413e-23
2.9733e-07 5.2581e-23
2.9882e-07 4.3416e-23
3.0032e-07 3.5194e-23
3.0182e-07 2.8446e-23
3.0334e-07 2.2676e-23
3.0486e-07 1.8654e-23
3.0639e-07 1.5656e-23
3.0792e-07 1.2137e-23
3.0947e-07 9.8297e-24
3.1102e-07 8.1021e-24
3.1258e-07 6.1728e-24
3.1415e-07 5.2843e-24
3.1572e-07 4.4207e-24
3.1731e-07 3.416e-24
3.189e-07 2.2037e-24
3.205e-07 2.1397e-24
3.2211e-07 1.8953e-24
3.2372e-07 8.8482e-25
3.2535e-07 1.2833e-24
3.2698e-07 5.8196e-25
3.2862e-07 6.4771e-25
3.3027e-07 4.5768e-25
3.3192e-07 3.266e-25
3.3359e-07 3.6602e-25
3.3526e-07 1.2178e-25
3.3694e-07 2.2054e-25
3.3863e-07 8.1365e-26
3.4033e-07 1.4353e-25
3.4204e-07 3.3466e-26
3.4375e-07 7.6431e-26
3.4548e-07 3.2785e-26
3.4721e-07 3.2752e-26
3.4895e-07 1.031e-26
3.507e-07 1.0699e-26
3.5246e-07 1.5653e-26
3.5423e-07 3.7092e-27
3.5601e-07 2.9165e-27
3.5779e-07 2.4578e-27
3.5959e-07 5.6644e-27
3.6139e-07 1.8242e-27
3.632e-07 9.36e-28
3.6502e-07 1.2979e-27
3.6686e-07 7.0137e-28
3.687e-07 5.8672e-28
3.7054e-07 1.1909e-27
3.724e-07 7.3625e-28
3.7427e-07 6.567e-28
3.7615e-07 1.0984e-27
3.7804e-07 6.9361e-28
3.7993e-07 5.31e-28
3.8184e-07 5.4334e-28
3.8375e-07 5.6234e-28
3.8568e-07 5.5798e-28
3.8761e-07 7.6231e-28
3.8956e-07 9.5416e-28
3.9151e-07 1.0034e-27
3.9347e-07 9.8867e-28
3.9545e-07 1.2075e-27
3.9743e-07 1.1852e-27
3.9942e-07 1.2225e-27
4.0143e-07 1.3595e-27
4.0344e-07 1.4477e-27
4.0546e-07 1.4769e-27
4.075e-07 2.1337e-27
4.0954e-07 2.7117e-27
4.116e-07 2.7284e-27
4.1366e-07 2.425e-27
4.1574e-07 3.2009e-27
4.1782e-07 3.8176e-27
4.1992e-07 3.7303e-27
4.2202e-07 4.7592e-27
4.2414e-07 6.6471e-27
4.2627e-07 7.4557e-27
4.2841e-07 6.6615e-27
4.3055e-07 6.892e-27
4.3271e-07 8.8234e-27
4.3488e-07 9.0289e-27
4.3707e-07 9.6299e-27
4.3926e-07 1.3271e-26
4.4146e-07 1.756e-26
4.4368e-07 1.8901e-26
4.459e-07 1.6277e-26
4.4814e-07 1.6591e-26
4.5038e-07 2.0371e-26
4.5264e-07 2.06e-26
4.5491e-07 2.1762e-26
4.572e-07 2.7725e-26
4.5949e-07 3.7029e-26
4.6179e-07 4.2549e-26
4.6411e-07 3.8344e-26
4.6644e-07 3.4997e-26
4.6878e-07 4.0859e-26
4.7113e-07 4.4043e-26
4.7349e-07 4.4305e-26
4.7587e-07 5.1283e-26
4.7825e-07 6.6168e-26
4.8065e-07 8.2734e-26
4.8306e-07 8.805e-26
4.8549e-07 8.1342e-26
4.8792e-07 7.7649e-26
4.9037e-07 8.4769e-26
4.9283e-07 8.8931e-26
4.953e-07 9.1604e-26
4.9779e-07 1.0342e-25
5.0028e-07 1.2677e-25
5.0279e-07 1.558e-25
5.0531e-07 1.7213e-25
5.0785e-07 1.7028e-25
5.104e-07 1.6015e-25
5.1296e-07 1.6157e-25
5.1553e-07 1.7064e-25
5.1811e-07 1.7883e-25
5.2071e-07 1.8877e-25
5.2332e-07 2.0733e-25
5.2595e-07 2.3284e-25
5.2859e-07 2.6049e-25
5.3124e-07 2.8225e-25
5.339e-07 2.9142e-25
5.3658e-07 2.9091e-25
5.3927e-07 2.968e-25
5.4198e-07 3.1662e-25
5.447e-07 3.3066e-25
5.4743e-07 3.4008e-25
5.5017e-07 3.4673e-25
5.5293e-07 3.5425e-25
5.5571e-07 3.6744e-25
5.5849e-07 3.898e-25
5.613e-07 4.1879e-25
5.6411e-07 4.4413e-25
5.6694e-07 4.642e-25
5.6978e-07 4.9144e-25
5.7264e-07 5.0269e-25
5.7551e-07 5.033e-25
5.784e-07 4.8951e-25
5.813e-07 4.7399e-25
5.8422e-07 4.644e-25
5.8715e-07 4.6864e-25
5.9009e-07 4.9369e-25
5.9305e-07 4.988e-25
5.9603e-07 5.2569e-25
5.9902e-07 5.4631e-25
6.0202e-07 5.4659e-25
6.0504e-07 5.3378e-25
6.0808e-07 5.1031e-25
6.1113e-07 4.8445e-25
6.1419e-07 4.6346e-25
6.1727e-07 4.4329e-25
6.2037e-07 4.2636e-25
6.2348e-07 4.1183e-25
6.2661e-07 4.0198e-25
6.2975e-07 3.8954e-25
6.3291e-07 3.6954e-25
6.3608e-07 3.4827e-25
6.3927e-07 3.2809e-25
6.4248e-07 3.0805e-25
6.457e-07 2.9976e-25
6.4894e-07 2.9356e-25
6.522e-07 2.7731e-25
6.5547e-07 2.609e-25
6.5876e-07 2.4092e-25
6.6206e-07 2.2222e-25
6.6538e-07 2.0747e-25
6.6872e-07 1.913e-25
6.7207e-07 1.7681e-25
6.7544e-07 1.6462e-25
6.7883e-07 1.5427e-25
6.8224e-07 1.476e-25
6.8566e-07 1.4137e-25
6.891e-07 1.4332e-25
6.9255e-07 1.3203e-25
6.9603e-07 1.2207e-25
6.9952e-07 1.1456e-25
7.0303e-07 1.056e-25
7.0655e-07 1.0059e-25
7.101e-07 9.56e-26
7.1366e-07 9.2252e-26
7.1724e-07 1.0475e-25
7.2084e-07 9.39e-26
7.2445e-07 8.7549e-26
7.2809e-07 8.1155e-26
7.3174e-07 7.4591e-26
7.3541e-07 6.6726e-26
7.391e-07 6.3849e-26
7.428e-07 6.0678e-26
7.4653e-07 6.0482e-26
7.5027e-07 5.6633e-26
7.5404e-07 4.8333e-26
7.5782e-07 4.4799e-26
7.6162e-07 5.2864e-26
7.6544e-07 4.9386e-26
7.6928e-07 4.261e-26
7.7314e-07 4.1883e-26
7.7702e-07 4.5453e-26
7.8091e-07 4.5707e-26
7.8483e-07 4.1293e-26
7.8877e-07 3.9762e-26
7.9272e-07 3.5628e-26
7.967e-07 -0
8.007e-07 -0
8.0471e-07 -0
8.0875e-07 -0
8.1281e-07 -0
8.1688e-07 -0
8.2098e-07 -0
8.251e-07 -0
8.2924e-07 -0
8.334e-07 -0
8.3758e-07 -0
8.4178e-07 -0
8.46e-07 -0
8.5024e-07 -0
8.5451e-07 -0
8.5879e-07 -0
8.631e-07 -0
8.6743e-07 -0
8.7178e-07 -0
8.7615e-07 -0
8.8055e-07 -0
8.8496e-07 -0
8.894e-07 -0
8.9386e-07 -0
8.9835e-07 -0
9.0285e-07 -0
9.0738e-07 -0
9.1193e-07 -0
9.1651e-07 -0
9.211e-07 -0
9.2572e-07 -0
9.3037e-07 -0
9.3503e-07 -0
9.3972e-07 -0
9.4444e-07 -0
9.4918e-07 -0
9.5394e-07 -0
9.5872e-07 -0
9.6353e-07 -0
9.6836e-07 -0
9.7322e-07 -0
9.781e-07 -0
9.8301e-07 -0
9.8794e-07 -0
9.9289e-07 -0
9.9787e-07 -0
1.0029e-06 -0
1.0079e-06 -0
1.013e-06 -0
1.018e-06 -0
1.0232e-06 -0
1.0283e-06 -0
1.03e-06 -0