File: material/gas/smooth_input/o3_uv_vis_toa_T0_P0.txt
2.8e-07 3.8683e-22
2.814e-07 3.3321e-22
2.8282e-07 2.9888e-22
2.8423e-07 2.5812e-22
2.8566e-07 2.2304e-22
2.8709e-07 1.9467e-22
2.8853e-07 1.6046e-22
2.8998e-07 1.3624e-22
2.9143e-07 1.1351e-22
2.929e-07 9.6015e-23
2.9437e-07 7.9176e-23
2.9584e-07 6.4095e-23
2.9733e-07 5.2548e-23
2.9882e-07 4.3403e-23
3.0032e-07 3.5187e-23
3.0182e-07 2.8444e-23
3.0334e-07 2.2673e-23
3.0486e-07 1.8646e-23
3.0639e-07 1.5654e-23
3.0792e-07 1.2137e-23
3.0947e-07 9.8249e-24
3.1102e-07 8.1019e-24
3.1258e-07 6.1722e-24
3.1415e-07 5.2824e-24
3.1572e-07 4.4199e-24
3.1731e-07 3.4159e-24
3.189e-07 2.2035e-24
3.205e-07 2.1386e-24
3.2211e-07 1.8945e-24
3.2372e-07 8.8466e-25
3.2535e-07 1.2831e-24
3.2698e-07 5.8185e-25
3.2862e-07 6.4734e-25
3.3027e-07 4.575e-25
3.3192e-07 3.2651e-25
3.3359e-07 3.6589e-25
3.3526e-07 1.2177e-25
3.3694e-07 2.205e-25
3.3863e-07 8.1363e-26
3.4033e-07 1.4352e-25
3.4204e-07 3.3466e-26
3.4375e-07 7.6421e-26
3.4548e-07 3.2785e-26
3.4721e-07 3.2751e-26
3.4895e-07 1.031e-26
3.507e-07 1.0699e-26
3.5246e-07 1.5653e-26
3.5423e-07 3.7092e-27
3.5601e-07 2.9165e-27
3.5779e-07 2.4578e-27
3.5959e-07 5.6644e-27
3.6139e-07 1.8242e-27
3.632e-07 9.36e-28
3.6502e-07 1.2979e-27
3.6686e-07 7.0137e-28
3.687e-07 5.8672e-28
3.7054e-07 1.191e-27
3.724e-07 7.3625e-28
3.7427e-07 6.567e-28
3.7615e-07 1.0984e-27
3.7804e-07 6.9361e-28
3.7993e-07 5.31e-28
3.8184e-07 5.4334e-28
3.8375e-07 5.6234e-28
3.8568e-07 5.5798e-28
3.8761e-07 7.6231e-28
3.8956e-07 9.541e-28
3.9151e-07 1.0033e-27
3.9347e-07 9.886e-28
3.9545e-07 1.2075e-27
3.9743e-07 1.1851e-27
3.9942e-07 1.2222e-27
4.0143e-07 1.3593e-27
4.0344e-07 1.4476e-27
4.0546e-07 1.4769e-27
4.075e-07 2.1336e-27
4.0954e-07 2.7117e-27
4.116e-07 2.7284e-27
4.1366e-07 2.425e-27
4.1574e-07 3.2009e-27
4.1782e-07 3.8177e-27
4.1992e-07 3.7302e-27
4.2202e-07 4.7592e-27
4.2414e-07 6.6471e-27
4.2627e-07 7.4558e-27
4.2841e-07 6.6614e-27
4.3055e-07 6.8919e-27
4.3271e-07 8.8234e-27
4.3488e-07 9.0289e-27
4.3707e-07 9.6299e-27
4.3926e-07 1.3271e-26
4.4146e-07 1.7564e-26
4.4368e-07 1.8909e-26
4.459e-07 1.6284e-26
4.4814e-07 1.6592e-26
4.5038e-07 2.0371e-26
4.5264e-07 2.06e-26
4.5491e-07 2.1762e-26
4.572e-07 2.7726e-26
4.5949e-07 3.7029e-26
4.6179e-07 4.2549e-26
4.6411e-07 3.8344e-26
4.6644e-07 3.4997e-26
4.6878e-07 4.0865e-26
4.7113e-07 4.4051e-26
4.7349e-07 4.431e-26
4.7587e-07 5.1284e-26
4.7825e-07 6.6169e-26
4.8065e-07 8.2734e-26
4.8306e-07 8.8051e-26
4.8549e-07 8.1355e-26
4.8792e-07 7.766e-26
4.9037e-07 8.4775e-26
4.9283e-07 8.8932e-26
4.953e-07 9.1604e-26
4.9779e-07 1.0342e-25
5.0028e-07 1.2679e-25
5.0279e-07 1.5586e-25
5.0531e-07 1.7222e-25
5.0785e-07 1.7041e-25
5.104e-07 1.602e-25
5.1296e-07 1.6158e-25
5.1553e-07 1.7064e-25
5.1811e-07 1.7883e-25
5.2071e-07 1.8877e-25
5.2332e-07 2.0733e-25
5.2595e-07 2.3285e-25
5.2859e-07 2.605e-25
5.3124e-07 2.8226e-25
5.339e-07 2.9142e-25
5.3658e-07 2.9092e-25
5.3927e-07 2.9684e-25
5.4198e-07 3.1674e-25
5.447e-07 3.3075e-25
5.4743e-07 3.4017e-25
5.5017e-07 3.4676e-25
5.5293e-07 3.5426e-25
5.5571e-07 3.6744e-25
5.5849e-07 3.898e-25
5.613e-07 4.188e-25
5.6411e-07 4.4414e-25
5.6694e-07 4.6425e-25
5.6978e-07 4.9166e-25
5.7264e-07 5.0287e-25
5.7551e-07 5.0346e-25
5.784e-07 4.8957e-25
5.813e-07 4.7403e-25
5.8422e-07 4.6445e-25
5.8715e-07 4.6884e-25
5.9009e-07 4.9414e-25
5.9305e-07 4.992e-25
5.9603e-07 5.2608e-25
5.9902e-07 5.4662e-25
6.0202e-07 5.4671e-25
6.0504e-07 5.3379e-25
6.0808e-07 5.1031e-25
6.1113e-07 4.8445e-25
6.1419e-07 4.6346e-25
6.1727e-07 4.4329e-25
6.2037e-07 4.2636e-25
6.2348e-07 4.1183e-25
6.2661e-07 4.021e-25
6.2975e-07 3.8982e-25
6.3291e-07 3.6969e-25
6.3608e-07 3.4837e-25
6.3927e-07 3.2818e-25
6.4248e-07 3.0814e-25
6.457e-07 2.9994e-25
6.4894e-07 2.9395e-25
6.522e-07 2.7757e-25
6.5547e-07 2.612e-25
6.5876e-07 2.4111e-25
6.6206e-07 2.2227e-25
6.6538e-07 2.0753e-25
6.6872e-07 1.9132e-25
6.7207e-07 1.7681e-25
6.7544e-07 1.6462e-25
6.7883e-07 1.5428e-25
6.8224e-07 1.4764e-25
6.8566e-07 1.4144e-25
6.891e-07 1.4366e-25
6.9255e-07 1.3214e-25
6.9603e-07 1.2224e-25
6.9952e-07 1.1482e-25
7.0303e-07 1.0578e-25
7.0655e-07 1.0076e-25
7.101e-07 9.5694e-26
7.1366e-07 9.2383e-26
7.1724e-07 1.0499e-25
7.2084e-07 9.4084e-26
7.2445e-07 8.7801e-26
7.2809e-07 8.1347e-26
7.3174e-07 7.4772e-26
7.3541e-07 6.6902e-26
7.391e-07 6.397e-26
7.428e-07 6.0739e-26
7.4653e-07 6.0512e-26
7.5027e-07 5.6658e-26
7.5404e-07 4.8405e-26
7.5782e-07 4.4959e-26
7.6162e-07 5.2806e-26
7.6544e-07 4.9529e-26
7.6928e-07 4.2737e-26
7.7314e-07 4.1965e-26
7.7702e-07 4.5468e-26
7.8091e-07 4.5723e-26
7.8483e-07 4.1348e-26
7.8877e-07 3.989e-26
7.9272e-07 3.5738e-26
7.967e-07 -0
8.007e-07 -0
8.0471e-07 -0
8.0875e-07 -0
8.1281e-07 -0
8.1688e-07 -0
8.2098e-07 -0
8.251e-07 -0
8.2924e-07 -0
8.334e-07 -0
8.3758e-07 -0
8.4178e-07 -0
8.46e-07 -0
8.5024e-07 -0
8.5451e-07 -0
8.5879e-07 -0
8.631e-07 -0
8.6743e-07 -0
8.7178e-07 -0
8.7615e-07 -0
8.8055e-07 -0
8.8496e-07 -0
8.894e-07 -0
8.9386e-07 -0
8.9835e-07 -0
9.0285e-07 -0
9.0738e-07 -0
9.1193e-07 -0
9.1651e-07 -0
9.211e-07 -0
9.2572e-07 -0
9.3037e-07 -0
9.3503e-07 -0
9.3972e-07 -0
9.4444e-07 -0
9.4918e-07 -0
9.5394e-07 -0
9.5872e-07 -0
9.6353e-07 -0
9.6836e-07 -0
9.7322e-07 -0
9.781e-07 -0
9.8301e-07 -0
9.8794e-07 -0
9.9289e-07 -0
9.9787e-07 -0
1.0029e-06 -0
1.0079e-06 -0
1.013e-06 -0
1.018e-06 -0
1.0232e-06 -0
1.0283e-06 -0
1.03e-06 -0