File: material/gas/smooth_input/o3_uv_vis_T0_P1.txt
2.8e-07 3.9348e-22
2.814e-07 3.3917e-22
2.8282e-07 2.9989e-22
2.8423e-07 2.5907e-22
2.8566e-07 2.2388e-22
2.8709e-07 1.956e-22
2.8853e-07 1.613e-22
2.8998e-07 1.3684e-22
2.9143e-07 1.1452e-22
2.929e-07 9.6572e-23
2.9437e-07 7.937e-23
2.9584e-07 6.4314e-23
2.9733e-07 5.2881e-23
2.9882e-07 4.3559e-23
3.0032e-07 3.5228e-23
3.0182e-07 2.8449e-23
3.0334e-07 2.27e-23
3.0486e-07 1.8699e-23
3.0639e-07 1.5675e-23
3.0792e-07 1.2138e-23
3.0947e-07 9.8361e-24
3.1102e-07 8.107e-24
3.1258e-07 6.179e-24
3.1415e-07 5.2732e-24
3.1572e-07 4.4141e-24
3.1731e-07 3.4166e-24
3.189e-07 2.2078e-24
3.205e-07 2.1405e-24
3.2211e-07 1.8974e-24
3.2372e-07 8.8933e-25
3.2535e-07 1.291e-24
3.2698e-07 5.8288e-25
3.2862e-07 6.5327e-25
3.3027e-07 4.6368e-25
3.3192e-07 3.2729e-25
3.3359e-07 3.6687e-25
3.3526e-07 1.219e-25
3.3694e-07 2.1993e-25
3.3863e-07 8.1576e-26
3.4033e-07 1.4334e-25
3.4204e-07 3.349e-26
3.4375e-07 7.834e-26
3.4548e-07 3.2789e-26
3.4721e-07 3.2963e-26
3.4895e-07 1.0296e-26
3.507e-07 1.0723e-26
3.5246e-07 1.5612e-26
3.5423e-07 3.7123e-27
3.5601e-07 2.9036e-27
3.5779e-07 2.4345e-27
3.5959e-07 5.6176e-27
3.6139e-07 1.8304e-27
3.632e-07 9.3647e-28
3.6502e-07 1.3024e-27
3.6686e-07 7.0129e-28
3.687e-07 5.8675e-28
3.7054e-07 1.1991e-27
3.724e-07 7.3641e-28
3.7427e-07 6.5688e-28
3.7615e-07 1.0992e-27
3.7804e-07 6.9395e-28
3.7993e-07 5.3105e-28
3.8184e-07 5.4328e-28
3.8375e-07 5.6178e-28
3.8568e-07 5.5783e-28
3.8761e-07 7.6264e-28
3.8956e-07 9.5615e-28
3.9151e-07 1.0055e-27
3.9347e-07 9.8225e-28
3.9545e-07 1.205e-27
3.9743e-07 1.1833e-27
3.9942e-07 1.2227e-27
4.0143e-07 1.3592e-27
4.0344e-07 1.4477e-27
4.0546e-07 1.4771e-27
4.075e-07 2.1327e-27
4.0954e-07 2.7131e-27
4.116e-07 2.7287e-27
4.1366e-07 2.4249e-27
4.1574e-07 3.2001e-27
4.1782e-07 3.8178e-27
4.1992e-07 3.7301e-27
4.2202e-07 4.7617e-27
4.2414e-07 6.6463e-27
4.2627e-07 7.4554e-27
4.2841e-07 6.6599e-27
4.3055e-07 6.8913e-27
4.3271e-07 8.8238e-27
4.3488e-07 9.0293e-27
4.3707e-07 9.6338e-27
4.3926e-07 1.3264e-26
4.4146e-07 1.7551e-26
4.4368e-07 1.8903e-26
4.459e-07 1.6277e-26
4.4814e-07 1.659e-26
4.5038e-07 2.0367e-26
4.5264e-07 2.0599e-26
4.5491e-07 2.1761e-26
4.572e-07 2.773e-26
4.5949e-07 3.7031e-26
4.6179e-07 4.2549e-26
4.6411e-07 3.8339e-26
4.6644e-07 3.5e-26
4.6878e-07 4.0859e-26
4.7113e-07 4.4044e-26
4.7349e-07 4.4305e-26
4.7587e-07 5.1288e-26
4.7825e-07 6.6176e-26
4.8065e-07 8.2735e-26
4.8306e-07 8.8046e-26
4.8549e-07 8.1282e-26
4.8792e-07 7.7643e-26
4.9037e-07 8.4773e-26
4.9283e-07 8.8929e-26
4.953e-07 9.1608e-26
4.9779e-07 1.0344e-25
5.0028e-07 1.268e-25
5.0279e-07 1.558e-25
5.0531e-07 1.7215e-25
5.0785e-07 1.7034e-25
5.104e-07 1.6017e-25
5.1296e-07 1.6158e-25
5.1553e-07 1.7064e-25
5.1811e-07 1.7881e-25
5.2071e-07 1.8877e-25
5.2332e-07 2.0728e-25
5.2595e-07 2.3291e-25
5.2859e-07 2.6044e-25
5.3124e-07 2.8227e-25
5.339e-07 2.9142e-25
5.3658e-07 2.9091e-25
5.3927e-07 2.9682e-25
5.4198e-07 3.1666e-25
5.447e-07 3.3069e-25
5.4743e-07 3.401e-25
5.5017e-07 3.4674e-25
5.5293e-07 3.5425e-25
5.5571e-07 3.6746e-25
5.5849e-07 3.8983e-25
5.613e-07 4.188e-25
5.6411e-07 4.4414e-25
5.6694e-07 4.6419e-25
5.6978e-07 4.9167e-25
5.7264e-07 5.0283e-25
5.7551e-07 5.0335e-25
5.784e-07 4.8953e-25
5.813e-07 4.74e-25
5.8422e-07 4.6441e-25
5.8715e-07 4.6879e-25
5.9009e-07 4.9504e-25
5.9305e-07 4.9982e-25
5.9603e-07 5.2654e-25
5.9902e-07 5.4668e-25
6.0202e-07 5.4664e-25
6.0504e-07 5.3378e-25
6.0808e-07 5.103e-25
6.1113e-07 4.8445e-25
6.1419e-07 4.6347e-25
6.1727e-07 4.4332e-25
6.2037e-07 4.2636e-25
6.2348e-07 4.1182e-25
6.2661e-07 4.0202e-25
6.2975e-07 3.9047e-25
6.3291e-07 3.6968e-25
6.3608e-07 3.4831e-25
6.3927e-07 3.2809e-25
6.4248e-07 3.0808e-25
6.457e-07 2.9999e-25
6.4894e-07 2.9449e-25
6.522e-07 2.7843e-25
6.5547e-07 2.6161e-25
6.5876e-07 2.411e-25
6.6206e-07 2.2224e-25
6.6538e-07 2.0748e-25
6.6872e-07 1.9131e-25
6.7207e-07 1.7681e-25
6.7544e-07 1.6462e-25
6.7883e-07 1.5426e-25
6.8224e-07 1.476e-25
6.8566e-07 1.4137e-25
6.891e-07 1.4466e-25
6.9255e-07 1.3295e-25
6.9603e-07 1.2342e-25
6.9952e-07 1.1562e-25
7.0303e-07 1.0657e-25
7.0655e-07 1.0094e-25
7.101e-07 9.5765e-26
7.1366e-07 9.2411e-26
7.1724e-07 1.0769e-25
7.2084e-07 9.6596e-26
7.2445e-07 9.0256e-26
7.2809e-07 8.3697e-26
7.3174e-07 7.6318e-26
7.3541e-07 6.7376e-26
7.391e-07 6.4229e-26
7.428e-07 6.0747e-26
7.4653e-07 6.0485e-26
7.5027e-07 5.6632e-26
7.5404e-07 4.8334e-26
7.5782e-07 4.48e-26
7.6162e-07 5.4514e-26
7.6544e-07 5.0195e-26
7.6928e-07 4.2845e-26
7.7314e-07 4.191e-26
7.7702e-07 4.5457e-26
7.8091e-07 4.5708e-26
7.8483e-07 4.1316e-26
7.8877e-07 4.0065e-26
7.9272e-07 3.5932e-26
7.967e-07 -0
8.007e-07 -0
8.0471e-07 -0
8.0875e-07 -0
8.1281e-07 -0
8.1688e-07 -0
8.2098e-07 -0
8.251e-07 -0
8.2924e-07 -0
8.334e-07 -0
8.3758e-07 -0
8.4178e-07 -0
8.46e-07 -0
8.5024e-07 -0
8.5451e-07 -0
8.5879e-07 -0
8.631e-07 -0
8.6743e-07 -0
8.7178e-07 -0
8.7615e-07 -0
8.8055e-07 -0
8.8496e-07 -0
8.894e-07 -0
8.9386e-07 -0
8.9835e-07 -0
9.0285e-07 -0
9.0738e-07 -0
9.1193e-07 -0
9.1651e-07 -0
9.211e-07 -0
9.2572e-07 -0
9.3037e-07 -0
9.3503e-07 -0
9.3972e-07 -0
9.4444e-07 -0
9.4918e-07 -0
9.5394e-07 -0
9.5872e-07 -0
9.6353e-07 -0
9.6836e-07 -0
9.7322e-07 -0
9.781e-07 -0
9.8301e-07 -0
9.8794e-07 -0
9.9289e-07 -0
9.9787e-07 -0
1.0029e-06 -0
1.0079e-06 -0
1.013e-06 -0
1.018e-06 -0
1.0232e-06 -0
1.0283e-06 -0
1.03e-06 -0