File: material/gas/smooth_input/o3_uv_vis_T1_P0.txt
2.8e-07 3.8945e-22
2.814e-07 3.346e-22
2.8282e-07 2.952e-22
2.8423e-07 2.5415e-22
2.8566e-07 2.199e-22
2.8709e-07 1.9206e-22
2.8853e-07 1.5799e-22
2.8998e-07 1.3397e-22
2.9143e-07 1.1177e-22
2.929e-07 9.437e-23
2.9437e-07 7.7468e-23
2.9584e-07 6.2511e-23
2.9733e-07 5.1347e-23
2.9882e-07 4.2281e-23
3.0032e-07 3.4113e-23
3.0182e-07 2.7505e-23
3.0334e-07 2.1861e-23
3.0486e-07 1.7975e-23
3.0639e-07 1.5128e-23
3.0792e-07 1.165e-23
3.0947e-07 9.3899e-24
3.1102e-07 7.7547e-24
3.1258e-07 5.8478e-24
3.1415e-07 4.9931e-24
3.1572e-07 4.2219e-24
3.1731e-07 3.254e-24
3.189e-07 2.0275e-24
3.205e-07 2.0063e-24
3.2211e-07 1.8242e-24
3.2372e-07 7.7123e-25
3.2535e-07 1.2324e-24
3.2698e-07 5.1963e-25
3.2862e-07 5.8786e-25
3.3027e-07 4.3361e-25
3.3192e-07 2.8506e-25
3.3359e-07 3.4566e-25
3.3526e-07 9.8618e-26
3.3694e-07 2.0507e-25
3.3863e-07 6.5776e-26
3.4033e-07 1.3339e-25
3.4204e-07 2.4329e-26
3.4375e-07 7.2871e-26
3.4548e-07 2.4811e-26
3.4721e-07 2.9546e-26
3.4895e-07 6.5987e-27
3.507e-07 7.4418e-27
3.5246e-07 1.2356e-26
3.5423e-07 1.8216e-27
3.5601e-07 1.3933e-27
3.5779e-07 8.3494e-28
3.5959e-07 4.8047e-27
3.6139e-07 9.2214e-28
3.632e-07 3.0171e-28
3.6502e-07 4.1118e-28
3.6686e-07 9.7896e-29
3.687e-07 1.241e-28
3.7054e-07 2.6601e-29
3.724e-07 2.472e-29
3.7427e-07 1.0117e-28
3.7615e-07 4.0069e-27
3.7804e-07 3.3882e-28
3.7993e-07 8.3669e-29
3.8184e-07 1.0151e-28
3.8375e-07 9.9274e-29
3.8568e-07 7.4951e-29
3.8761e-07 4.8625e-28
3.8956e-07 1.279e-27
3.9151e-07 1.0171e-27
3.9347e-07 5.4654e-28
3.9545e-07 6.0398e-28
3.9743e-07 5.1326e-28
3.9942e-07 4.6817e-28
4.0143e-07 5.1431e-28
4.0344e-07 5.7642e-28
4.0546e-07 5.9934e-28
4.075e-07 1.1441e-27
4.0954e-07 1.6585e-27
4.116e-07 1.6728e-27
4.1366e-07 1.3894e-27
4.1574e-07 2.1333e-27
4.1782e-07 2.7226e-27
4.1992e-07 2.6332e-27
4.2202e-07 3.6648e-27
4.2414e-07 5.5669e-27
4.2627e-07 6.3941e-27
4.2841e-07 5.5637e-27
4.3055e-07 5.8172e-27
4.3271e-07 7.8017e-27
4.3488e-07 7.9798e-27
4.3707e-07 8.6376e-27
4.3926e-07 1.2374e-26
4.4146e-07 1.6727e-26
4.4368e-07 1.8192e-26
4.459e-07 1.5503e-26
4.4814e-07 1.5805e-26
4.5038e-07 1.9713e-26
4.5264e-07 2.0111e-26
4.5491e-07 2.1959e-26
4.572e-07 2.7135e-26
4.5949e-07 3.6532e-26
4.6179e-07 4.194e-26
4.6411e-07 3.7395e-26
4.6644e-07 3.4126e-26
4.6878e-07 4.051e-26
4.7113e-07 4.3773e-26
4.7349e-07 4.4051e-26
4.7587e-07 5.1283e-26
4.7825e-07 6.6425e-26
4.8065e-07 8.3064e-26
4.8306e-07 8.7843e-26
4.8549e-07 8.071e-26
4.8792e-07 7.7291e-26
4.9037e-07 8.4682e-26
4.9283e-07 8.873e-26
4.953e-07 9.1433e-26
4.9779e-07 1.038e-25
5.0028e-07 1.2801e-25
5.0279e-07 1.5789e-25
5.0531e-07 1.7409e-25
5.0785e-07 1.7185e-25
5.104e-07 1.6096e-25
5.1296e-07 1.6228e-25
5.1553e-07 1.7125e-25
5.1811e-07 1.7927e-25
5.2071e-07 1.8931e-25
5.2332e-07 2.0837e-25
5.2595e-07 2.3429e-25
5.2859e-07 2.6209e-25
5.3124e-07 2.8367e-25
5.339e-07 2.9231e-25
5.3658e-07 2.918e-25
5.3927e-07 2.9854e-25
5.4198e-07 3.2004e-25
5.447e-07 3.3374e-25
5.4743e-07 3.4258e-25
5.5017e-07 3.4855e-25
5.5293e-07 3.5536e-25
5.5571e-07 3.685e-25
5.5849e-07 3.9126e-25
5.613e-07 4.2066e-25
5.6411e-07 4.4587e-25
5.6694e-07 4.6638e-25
5.6978e-07 4.9648e-25
5.7264e-07 5.0718e-25
5.7551e-07 5.0753e-25
5.784e-07 4.9274e-25
5.813e-07 4.7684e-25
5.8422e-07 4.6761e-25
5.8715e-07 4.7412e-25
5.9009e-07 5.0445e-25
5.9305e-07 5.0815e-25
5.9603e-07 5.3533e-25
5.9902e-07 5.5465e-25
6.0202e-07 5.5169e-25
6.0504e-07 5.3703e-25
6.0808e-07 5.1283e-25
6.1113e-07 4.8784e-25
6.1419e-07 4.7278e-25
6.1727e-07 4.5509e-25
6.2037e-07 4.3944e-25
6.2348e-07 4.2548e-25
6.2661e-07 4.1777e-25
6.2975e-07 4.0747e-25
6.3291e-07 3.8614e-25
6.3608e-07 3.6408e-25
6.3927e-07 3.4368e-25
6.4248e-07 3.2346e-25
6.457e-07 3.1715e-25
6.4894e-07 3.1366e-25
6.522e-07 2.9685e-25
6.5547e-07 2.7962e-25
6.5876e-07 2.576e-25
6.6206e-07 2.3708e-25
6.6538e-07 2.2203e-25
6.6872e-07 2.0523e-25
6.7207e-07 1.9043e-25
6.7544e-07 1.7834e-25
6.7883e-07 1.6838e-25
6.8224e-07 1.6218e-25
6.8566e-07 1.5655e-25
6.891e-07 1.6266e-25
6.9255e-07 1.5078e-25
6.9603e-07 1.4184e-25
6.9952e-07 1.3462e-25
7.0303e-07 1.2535e-25
7.0655e-07 1.1967e-25
7.101e-07 1.1457e-25
7.1366e-07 1.1096e-25
7.1724e-07 1.3101e-25
7.2084e-07 1.1923e-25
7.2445e-07 1.1336e-25
7.2809e-07 1.0684e-25
7.3174e-07 9.9586e-26
7.3541e-07 8.8449e-26
7.391e-07 8.4686e-26
7.428e-07 7.9775e-26
7.4653e-07 7.8495e-26
7.5027e-07 7.4482e-26
7.5404e-07 6.6538e-26
7.5782e-07 6.46e-26
7.6162e-07 7.9888e-26
7.6544e-07 7.501e-26
7.6928e-07 6.4098e-26
7.7314e-07 6.1191e-26
7.7702e-07 6.3933e-26
7.8091e-07 6.4216e-26
7.8483e-07 6.1105e-26
7.8877e-07 6.2711e-26
7.9272e-07 5.951e-26
7.967e-07 -0
8.007e-07 -0
8.0471e-07 -0
8.0875e-07 -0
8.1281e-07 -0
8.1688e-07 -0
8.2098e-07 -0
8.251e-07 -0
8.2924e-07 -0
8.334e-07 -0
8.3758e-07 -0
8.4178e-07 -0
8.46e-07 -0
8.5024e-07 -0
8.5451e-07 -0
8.5879e-07 -0
8.631e-07 -0
8.6743e-07 -0
8.7178e-07 -0
8.7615e-07 -0
8.8055e-07 -0
8.8496e-07 -0
8.894e-07 -0
8.9386e-07 -0
8.9835e-07 -0
9.0285e-07 -0
9.0738e-07 -0
9.1193e-07 -0
9.1651e-07 -0
9.211e-07 -0
9.2572e-07 -0
9.3037e-07 -0
9.3503e-07 -0
9.3972e-07 -0
9.4444e-07 -0
9.4918e-07 -0
9.5394e-07 -0
9.5872e-07 -0
9.6353e-07 -0
9.6836e-07 -0
9.7322e-07 -0
9.781e-07 -0
9.8301e-07 -0
9.8794e-07 -0
9.9289e-07 -0
9.9787e-07 -0
1.0029e-06 -0
1.0079e-06 -0
1.013e-06 -0
1.018e-06 -0
1.0232e-06 -0
1.0283e-06 -0
1.03e-06 -0